# GW Macroscopic dielectric function without local field effects 
# Scissor operator energy =  0.8000 [eV]
# Tolerance =  0.0200 0.0200
# npweps  = 59
# npwwfn  = 137
# nbands  = 6
# loband  = 2
# nkibz   = 512
# nkbz    = 512
# Lorentzian broadening =  0.1500 [eV]
# List of q-points for the optical limit:
# q =  0.938821, 0.000000, 0.000000, [Reduced coords] 
# q =  0.000000, 0.938821, 0.000000, [Reduced coords] 
# q =  0.000000, 0.000000, 0.938821, [Reduced coords] 
# q =  0.000000, 0.813043, 0.813043, [Reduced coords] 
# q =  0.813043, 0.000000, 0.813043, [Reduced coords] 
# q =  0.813043, 0.813043, 0.000000, [Reduced coords] 
# omega [eV]    RE(eps(q=1)) IM(eps(q=1) RE(eps(q=2) ) ... DOS   IDOS
  0.000   10.9816    0.0000   10.9719    0.0000   10.6712    0.0000   10.6670    0.0000   10.8547    0.0000   10.9295    0.0000    0.0000    0.0000
  0.020   10.9818    0.0031   10.9721    0.0031   10.6714    0.0029   10.6672    0.0029   10.8549    0.0030   10.9297    0.0031    0.0000    0.0000
  0.040   10.9824    0.0062   10.9728    0.0062   10.6720    0.0058   10.6678    0.0058   10.8555    0.0060   10.9303    0.0061    0.0000    0.0000
  0.060   10.9834    0.0092   10.9738    0.0092   10.6729    0.0087   10.6687    0.0087   10.8565    0.0091   10.9314    0.0092    0.0000    0.0000
  0.080   10.9848    0.0123   10.9752    0.0123   10.6743    0.0116   10.6701    0.0116   10.8579    0.0121   10.9328    0.0122    0.0000    0.0000
  0.100   10.9867    0.0154   10.9770    0.0154   10.6760    0.0146   10.6718    0.0145   10.8597    0.0151   10.9346    0.0153    0.0000    0.0000
  0.120   10.9889    0.0185   10.9793    0.0185   10.6781    0.0175   10.6739    0.0174   10.8619    0.0181   10.9368    0.0184    0.0000    0.0000
  0.140   10.9916    0.0216   10.9820    0.0216   10.6807    0.0204   10.6764    0.0203   10.8645    0.0212   10.9395    0.0214    0.0000    0.0000
  0.160   10.9947    0.0247   10.9850    0.0247   10.6836    0.0233   10.6793    0.0232   10.8675    0.0242   10.9425    0.0245    0.0000    0.0000
  0.180   10.9981    0.0278   10.9885    0.0278   10.6868    0.0263   10.6826    0.0262   10.8709    0.0272   10.9460    0.0276    0.0000    0.0000
  0.200   11.0020    0.0310   10.9924    0.0309   10.6905    0.0292   10.6863    0.0291   10.8747    0.0303   10.9498    0.0307    0.0000    0.0000
  0.220   11.0064    0.0341   10.9967    0.0340   10.6946    0.0322   10.6903    0.0320   10.8789    0.0334   10.9541    0.0338    0.0000    0.0000
  0.240   11.0111    0.0372   11.0014    0.0372   10.6991    0.0351   10.6948    0.0350   10.8836    0.0364   10.9588    0.0369    0.0000    0.0000
  0.260   11.0162    0.0404   11.0066    0.0403   10.7039    0.0381   10.6996    0.0379   10.8886    0.0395   10.9639    0.0400    0.0000    0.0000
  0.280   11.0218    0.0435   11.0121    0.0435   10.7092    0.0411   10.7048    0.0409   10.8940    0.0426   10.9694    0.0432    0.0000    0.0000
  0.300   11.0278    0.0467   11.0181    0.0466   10.7148    0.0441   10.7105    0.0439   10.8999    0.0457   10.9754    0.0463    0.0000    0.0000
  0.320   11.0342    0.0499   11.0245    0.0498   10.7209    0.0471   10.7165    0.0469   10.9062    0.0488   10.9817    0.0495    0.0000    0.0000
  0.340   11.0410    0.0531   11.0313    0.0530   10.7273    0.0501   10.7229    0.0499   10.9129    0.0519   10.9885    0.0526    0.0000    0.0000
  0.360   11.0483    0.0563   11.0385    0.0562   10.7341    0.0531   10.7297    0.0529   10.9199    0.0551   10.9957    0.0558    0.0000    0.0000
  0.380   11.0559    0.0595   11.0462    0.0594   10.7414    0.0561   10.7369    0.0559   10.9275    0.0582   11.0033    0.0590    0.0000    0.0000
  0.400   11.0640    0.0628   11.0543    0.0627   10.7490    0.0592   10.7446    0.0590   10.9354    0.0614   11.0113    0.0622    0.0000    0.0000
  0.420   11.0726    0.0660   11.0628    0.0659   10.7571    0.0623   10.7526    0.0620   10.9438    0.0646   11.0198    0.0655    0.0000    0.0000
  0.440   11.0816    0.0693   11.0718    0.0692   10.7656    0.0654   10.7610    0.0651   10.9525    0.0678   11.0287    0.0687    0.0000    0.0000
  0.460   11.0910    0.0726   11.0812    0.0725   10.7744    0.0685   10.7699    0.0682   10.9617    0.0710   11.0380    0.0720    0.0000    0.0000
  0.480   11.1008    0.0759   11.0910    0.0758   10.7837    0.0716   10.7791    0.0713   10.9714    0.0743   11.0478    0.0753    0.0000    0.0000
  0.500   11.1111    0.0793   11.1013    0.0791   10.7934    0.0748   10.7888    0.0745   10.9815    0.0776   11.0580    0.0786    0.0000    0.0000
  0.520   11.1218    0.0826   11.1120    0.0825   10.8036    0.0779   10.7989    0.0776   10.9920    0.0808   11.0686    0.0819    0.0000    0.0000
  0.540   11.1330    0.0860   11.1232    0.0859   10.8141    0.0811   10.8094    0.0808   11.0029    0.0842   11.0797    0.0853    0.0000    0.0000
  0.560   11.1447    0.0894   11.1348    0.0893   10.8251    0.0843   10.8203    0.0840   11.0143    0.0875   11.0913    0.0887    0.0000    0.0000
  0.580   11.1567    0.0929   11.1469    0.0927   10.8365    0.0876   10.8317    0.0872   11.0261    0.0909   11.1033    0.0921    0.0000    0.0000
  0.600   11.1693    0.0963   11.1594    0.0962   10.8483    0.0908   10.8434    0.0905   11.0384    0.0942   11.1157    0.0955    0.0000    0.0000
  0.620   11.1823    0.0998   11.1724    0.0997   10.8606    0.0941   10.8557    0.0937   11.0511    0.0977   11.1286    0.0990    0.0000    0.0000
  0.640   11.1958    0.1034   11.1858    0.1032   10.8733    0.0974   10.8683    0.0970   11.0643    0.1011   11.1419    0.1025    0.0000    0.0000
  0.660   11.2097    0.1069   11.1997    0.1067   10.8864    0.1008   10.8814    0.1004   11.0779    0.1046   11.1558    0.1060    0.0000    0.0000
  0.680   11.2241    0.1105   11.2141    0.1103   10.9000    0.1041   10.8949    0.1037   11.0920    0.1081   11.1701    0.1096    0.0000    0.0000
  0.700   11.2390    0.1141   11.2290    0.1139   10.9140    0.1075   10.9089    0.1071   11.1066    0.1116   11.1848    0.1131    0.0000    0.0000
  0.720   11.2544    0.1178   11.2443    0.1176   10.9285    0.1110   10.9233    0.1105   11.1216    0.1152   11.2001    0.1168    0.0000    0.0000
  0.740   11.2702    0.1214   11.2602    0.1213   10.9435    0.1144   10.9382    0.1140   11.1371    0.1188   11.2158    0.1204    0.0000    0.0000
  0.760   11.2866    0.1252   11.2765    0.1250   10.9589    0.1179   10.9535    0.1174   11.1531    0.1224   11.2320    0.1241    0.0000    0.0000
  0.780   11.3034    0.1289   11.2933    0.1287   10.9747    0.1214   10.9694    0.1209   11.1696    0.1261   11.2487    0.1278    0.0000    0.0000
  0.800   11.3208    0.1327   11.3106    0.1325   10.9911    0.1250   10.9856    0.1245   11.1866    0.1298   11.2659    0.1316    0.0000    0.0000
  0.820   11.3386    0.1366   11.3284    0.1364   11.0079    0.1286   11.0024    0.1281   11.2040    0.1336   11.2836    0.1354    0.0000    0.0000
  0.840   11.3570    0.1405   11.3468    0.1402   11.0252    0.1323   11.0196    0.1317   11.2220    0.1374   11.3018    0.1393    0.0000    0.0000
  0.860   11.3759    0.1444   11.3656    0.1442   11.0429    0.1359   11.0373    0.1354   11.2404    0.1412   11.3205    0.1432    0.0000    0.0000
  0.880   11.3953    0.1484   11.3850    0.1481   11.0612    0.1397   11.0555    0.1391   11.2594    0.1451   11.3397    0.1471    0.0000    0.0000
  0.900   11.4152    0.1524   11.4049    0.1521   11.0800    0.1434   11.0742    0.1428   11.2789    0.1490   11.3595    0.1511    0.0000    0.0000
  0.920   11.4356    0.1565   11.4253    0.1562   11.0992    0.1472   11.0934    0.1466   11.2989    0.1530   11.3798    0.1551    0.0000    0.0000
  0.940   11.4567    0.1606   11.4463    0.1603   11.1190    0.1511   11.1130    0.1504   11.3195    0.1570   11.4006    0.1592    0.0000    0.0000
  0.960   11.4782    0.1647   11.4678    0.1645   11.1393    0.1550   11.1332    0.1543   11.3405    0.1611   11.4220    0.1633    0.0000    0.0000
  0.980   11.5003    0.1690   11.4899    0.1687   11.1601    0.1589   11.1540    0.1583   11.3621    0.1652   11.4439    0.1675    0.0000    0.0000
  1.000   11.5230    0.1732   11.5125    0.1730   11.1814    0.1629   11.1752    0.1622   11.3843    0.1694   11.4664    0.1717    0.0000    0.0000
  1.020   11.5462    0.1776   11.5357    0.1773   11.2033    0.1670   11.1970    0.1663   11.4070    0.1736   11.4894    0.1760    0.0000    0.0000
  1.040   11.5701    0.1820   11.5595    0.1817   11.2257    0.1711   11.2193    0.1703   11.4303    0.1779   11.5130    0.1804    0.0000    0.0000
  1.060   11.5945    0.1864   11.5839    0.1861   11.2486    0.1753   11.2421    0.1745   11.4542    0.1822   11.5372    0.1848    0.0000    0.0000
  1.080   11.6195    0.1910   11.6088    0.1906   11.2721    0.1795   11.2655    0.1787   11.4786    0.1866   11.5620    0.1893    0.0000    0.0000
  1.100   11.6451    0.1955   11.6344    0.1952   11.2962    0.1838   11.2895    0.1829   11.5036    0.1911   11.5874    0.1938    0.0000    0.0000
  1.120   11.6713    0.2002   11.6605    0.1999   11.3208    0.1881   11.3140    0.1872   11.5293    0.1957   11.6134    0.1984    0.0000    0.0000
  1.140   11.6981    0.2049   11.6873    0.2046   11.3461    0.1925   11.3391    0.1916   11.5555    0.2003   11.6400    0.2031    0.0000    0.0000
  1.160   11.7255    0.2097   11.7147    0.2094   11.3719    0.1970   11.3648    0.1961   11.5823    0.2049   11.6672    0.2079    0.0000    0.0000
  1.180   11.7536    0.2146   11.7428    0.2142   11.3982    0.2015   11.3910    0.2006   11.6098    0.2097   11.6950    0.2127    0.0000    0.0000
  1.200   11.7824    0.2195   11.7715    0.2192   11.4252    0.2061   11.4179    0.2051   11.6379    0.2145   11.7235    0.2176    0.0000    0.0000
  1.220   11.8118    0.2246   11.8008    0.2242   11.4529    0.2108   11.4454    0.2098   11.6666    0.2194   11.7527    0.2226    0.0000    0.0000
  1.240   11.8419    0.2297   11.8308    0.2293   11.4811    0.2155   11.4735    0.2145   11.6960    0.2244   11.7825    0.2276    0.0000    0.0000
  1.260   11.8726    0.2349   11.8615    0.2345   11.5099    0.2204   11.5022    0.2193   11.7260    0.2294   11.8129    0.2328    0.0000    0.0000
  1.280   11.9041    0.2401   11.8929    0.2397   11.5395    0.2253   11.5316    0.2242   11.7567    0.2346   11.8441    0.2380    0.0000    0.0000
  1.300   11.9362    0.2455   11.9250    0.2451   11.5696    0.2303   11.5616    0.2291   11.7881    0.2398   11.8760    0.2433    0.0000    0.0000
  1.320   11.9691    0.2510   11.9578    0.2505   11.6004    0.2353   11.5923    0.2342   11.8202    0.2451   11.9085    0.2487    0.0000    0.0000
  1.340   12.0026    0.2565   11.9914    0.2561   11.6319    0.2405   11.6236    0.2393   11.8530    0.2505   11.9418    0.2542    0.0000    0.0000
  1.360   12.0370    0.2622   12.0256    0.2617   11.6641    0.2457   11.6556    0.2445   11.8866    0.2560   11.9758    0.2598    0.0000    0.0000
  1.380   12.0720    0.2679   12.0606    0.2675   11.6970    0.2511   11.6884    0.2498   11.9208    0.2616   12.0106    0.2656    0.0000    0.0000
  1.400   12.1079    0.2738   12.0964    0.2733   11.7306    0.2565   11.7218    0.2552   11.9558    0.2674   12.0461    0.2714    0.0000    0.0000
  1.420   12.1445    0.2798   12.1330    0.2793   11.7649    0.2620   11.7559    0.2607   11.9916    0.2732   12.0824    0.2773    0.0000    0.0000
  1.440   12.1819    0.2859   12.1703    0.2854   11.8000    0.2677   11.7908    0.2663   12.0281    0.2791   12.1195    0.2833    0.0000    0.0000
  1.460   12.2202    0.2921   12.2085    0.2916   11.8358    0.2734   11.8264    0.2720   12.0654    0.2851   12.1574    0.2895    0.0000    0.0000
  1.480   12.2592    0.2984   12.2475    0.2979   11.8723    0.2793   11.8628    0.2778   12.1036    0.2913   12.1961    0.2957    0.0000    0.0000
  1.500   12.2991    0.3049   12.2873    0.3044   11.9097    0.2852   11.8999    0.2837   12.1425    0.2976   12.2356    0.3021    0.0000    0.0000
  1.520   12.3399    0.3115   12.3280    0.3109   11.9478    0.2913   11.9379    0.2897   12.1823    0.3040   12.2760    0.3087    0.0000    0.0000
  1.540   12.3815    0.3182   12.3696    0.3177   11.9867    0.2975   11.9766    0.2959   12.2229    0.3105   12.3173    0.3153    0.0000    0.0000
  1.560   12.4240    0.3251   12.4120    0.3245   12.0265    0.3039   12.0161    0.3022   12.2644    0.3172   12.3594    0.3221    0.0000    0.0000
  1.580   12.4675    0.3321   12.4554    0.3315   12.0671    0.3103   12.0565    0.3086   12.3068    0.3240   12.4025    0.3291    0.0000    0.0000
  1.600   12.5118    0.3393   12.4997    0.3387   12.1086    0.3169   12.0978    0.3151   12.3501    0.3310   12.4464    0.3362    0.0000    0.0000
  1.620   12.5572    0.3466   12.5449    0.3460   12.1510    0.3237   12.1399    0.3218   12.3943    0.3381   12.4913    0.3434    0.0000    0.0000
  1.640   12.6035    0.3541   12.5911    0.3534   12.1942    0.3305   12.1829    0.3286   12.4395    0.3454   12.5372    0.3508    0.0000    0.0000
  1.660   12.6507    0.3617   12.6383    0.3611   12.2384    0.3376   12.2268    0.3356   12.4856    0.3528   12.5841    0.3584    0.0000    0.0000
  1.680   12.6990    0.3695   12.6865    0.3689   12.2834    0.3447   12.2716    0.3427   12.5327    0.3604   12.6319    0.3661    0.0000    0.0000
  1.700   12.7484    0.3776   12.7358    0.3769   12.3295    0.3521   12.3174    0.3500   12.5809    0.3681   12.6808    0.3741    0.0000    0.0000
  1.720   12.7988    0.3857   12.7861    0.3850   12.3765    0.3596   12.3641    0.3574   12.6300    0.3761   12.7308    0.3822    0.0000    0.0000
  1.740   12.8503    0.3941   12.8375    0.3934   12.4245    0.3673   12.4118    0.3650   12.6802    0.3842   12.7818    0.3905    0.0000    0.0000
  1.760   12.9029    0.4027   12.8900    0.4020   12.4736    0.3751   12.4606    0.3728   12.7315    0.3925   12.8339    0.3990    0.0000    0.0000
  1.780   12.9566    0.4115   12.9437    0.4108   12.5236    0.3832   12.5103    0.3807   12.7839    0.4011   12.8871    0.4077    0.0000    0.0000
  1.800   13.0115    0.4205   12.9985    0.4198   12.5748    0.3914   12.5612    0.3889   12.8374    0.4098   12.9415    0.4166    0.0000    0.0000
  1.820   13.0676    0.4298   13.0545    0.4290   12.6270    0.3999   12.6131    0.3972   12.8921    0.4188   12.9971    0.4257    0.0000    0.0000
  1.840   13.1250    0.4393   13.1117    0.4384   12.6804    0.4085   12.6661    0.4058   12.9479    0.4279   13.0539    0.4351    0.0000    0.0000
  1.860   13.1836    0.4490   13.1702    0.4481   12.7349    0.4174   12.7202    0.4145   13.0050    0.4374   13.1119    0.4447    0.0000    0.0000
  1.880   13.2434    0.4589   13.2299    0.4581   12.7905    0.4265   12.7755    0.4235   13.0634    0.4470   13.1712    0.4546    0.0000    0.0000
  1.900   13.3046    0.4692   13.2910    0.4683   12.8474    0.4358   12.8320    0.4327   13.1230    0.4569   13.2319    0.4647    0.0000    0.0000
  1.920   13.3672    0.4797   13.3534    0.4788   12.9055    0.4453   12.8897    0.4422   13.1839    0.4671   13.2938    0.4752    0.0000    0.0000
  1.940   13.4311    0.4905   13.4172    0.4896   12.9649    0.4552   12.9487    0.4519   13.2461    0.4776   13.3571    0.4858    0.0000    0.0000
  1.960   13.4965    0.5016   13.4825    0.5006   13.0256    0.4652   13.0089    0.4618   13.3098    0.4883   13.4219    0.4968    0.0000    0.0000
  1.980   13.5633    0.5130   13.5492    0.5120   13.0876    0.4756   13.0705    0.4721   13.3749    0.4993   13.4881    0.5081    0.0000    0.0000
  2.000   13.6316    0.5248   13.6174    0.5238   13.1510    0.4862   13.1334    0.4826   13.4414    0.5107   13.5558    0.5197    0.0000    0.0000
  2.020   13.7015    0.5369   13.6872    0.5358   13.2158    0.4972   13.1977    0.4933   13.5094    0.5224   13.6250    0.5317    0.0000    0.0000
  2.040   13.7730    0.5493   13.7585    0.5482   13.2820    0.5084   13.2635    0.5044   13.5790    0.5344   13.6958    0.5440    0.0000    0.0000
  2.060   13.8462    0.5621   13.8315    0.5610   13.3497    0.5200   13.3307    0.5159   13.6501    0.5468   13.7682    0.5567    0.0000    0.0000
  2.080   13.9210    0.5753   13.9062    0.5742   13.4190    0.5319   13.3994    0.5276   13.7229    0.5595   13.8423    0.5697    0.0000    0.0000
  2.100   13.9975    0.5889   13.9826    0.5877   13.4898    0.5441   13.4696    0.5397   13.7974    0.5726   13.9181    0.5832    0.0000    0.0000
  2.120   14.0759    0.6030   14.0608    0.6017   13.5622    0.5568   13.5415    0.5521   13.8736    0.5862   13.9957    0.5971    0.0000    0.0000
  2.140   14.1561    0.6174   14.1408    0.6162   13.6363    0.5698   13.6150    0.5649   13.9516    0.6002   14.0752    0.6114    0.0000    0.0000
  2.160   14.2382    0.6324   14.2228    0.6311   13.7122    0.5832   13.6902    0.5782   14.0314    0.6146   14.1565    0.6262    0.0000    0.0000
  2.180   14.3223    0.6478   14.3067    0.6465   13.7897    0.5971   13.7671    0.5918   14.1131    0.6294   14.2397    0.6415    0.0000    0.0000
  2.200   14.4084    0.6638   14.3926    0.6624   13.8691    0.6113   13.8458    0.6058   14.1968    0.6448   14.3250    0.6572    0.0000    0.0000
  2.220   14.4966    0.6802   14.4806    0.6788   13.9504    0.6261   13.9264    0.6203   14.2825    0.6607   14.4123    0.6735    0.0000    0.0000
  2.240   14.5869    0.6973   14.5708    0.6958   14.0337    0.6413   14.0089    0.6353   14.3703    0.6771   14.5018    0.6904    0.0000    0.0000
  2.260   14.6795    0.7149   14.6632    0.7134   14.1189    0.6571   14.0933    0.6508   14.4602    0.6941   14.5934    0.7079    0.0000    0.0000
  2.280   14.7744    0.7332   14.7579    0.7317   14.2062    0.6734   14.1798    0.6668   14.5524    0.7117   14.6874    0.7259    0.0000    0.0000
  2.300   14.8717    0.7522   14.8550    0.7505   14.2956    0.6902   14.2684    0.6833   14.6468    0.7299   14.7837    0.7447    0.0000    0.0000
  2.320   14.9715    0.7718   14.9545    0.7701   14.3873    0.7077   14.3592    0.7005   14.7437    0.7488   14.8825    0.7641    0.0000    0.0000
  2.340   15.0739    0.7922   15.0567    0.7904   14.4812    0.7258   14.4521    0.7182   14.8430    0.7684   14.9838    0.7843    0.0000    0.0000
  2.360   15.1789    0.8133   15.1614    0.8115   14.5775    0.7445   14.5475    0.7366   14.9449    0.7887   15.0878    0.8052    0.0000    0.0000
  2.380   15.2866    0.8353   15.2690    0.8334   14.6762    0.7639   14.6452    0.7556   15.0494    0.8098   15.1945    0.8269    0.0000    0.0000
  2.400   15.3972    0.8581   15.3793    0.8562   14.7775    0.7841   14.7454    0.7753   15.1567    0.8317   15.3040    0.8495    0.0000    0.0000
  2.420   15.5108    0.8818   15.4927    0.8798   14.8814    0.8050   14.8482    0.7958   15.2668    0.8545   15.4164    0.8730    0.0000    0.0000
  2.440   15.6275    0.9065   15.6091    0.9045   14.9880    0.8268   14.9536    0.8171   15.3799    0.8782   15.5319    0.8974    0.0000    0.0000
  2.460   15.7473    0.9323   15.7287    0.9302   15.0975    0.8494   15.0619    0.8392   15.4960    0.9029   15.6506    0.9229    0.0000    0.0000
  2.480   15.8705    0.9591   15.8516    0.9569   15.2099    0.8730   15.1730    0.8622   15.6154    0.9286   15.7725    0.9495    0.0000    0.0000
  2.500   15.9972    0.9871   15.9780    0.9848   15.3254    0.8975   15.2871    0.8862   15.7381    0.9554   15.8979    0.9772    0.0000    0.0000
  2.520   16.1275    1.0164   16.1080    1.0140   15.4440    0.9231   15.4043    0.9111   15.8642    0.9834   16.0269    1.0061    0.0000    0.0000
  2.540   16.2616    1.0469   16.2417    1.0445   15.5659    0.9498   15.5247    0.9371   15.9940    1.0127   16.1596    1.0364    0.0000    0.0000
  2.560   16.3996    1.0789   16.3794    1.0763   15.6913    0.9776   15.6485    0.9642   16.1275    1.0433   16.2962    1.0680    0.0000    0.0000
  2.580   16.5416    1.1124   16.5211    1.1097   15.8203    1.0067   15.7758    0.9925   16.2650    1.0753   16.4368    1.1012    0.0000    0.0000
  2.600   16.6880    1.1475   16.6671    1.1447   15.9530    1.0372   15.9067    1.0221   16.4065    1.1088   16.5817    1.1359    0.0000    0.0000
  2.620   16.8388    1.1843   16.8176    1.1814   16.0896    1.0690   16.0415    1.0530   16.5524    1.1440   16.7310    1.1724    0.0000    0.0000
  2.640   16.9944    1.2229   16.9728    1.2199   16.2303    1.1024   16.1802    1.0854   16.7027    1.1809   16.8849    1.2107    0.0000    0.0000
  2.660   17.1548    1.2636   17.1328    1.2604   16.3752    1.1375   16.3230    1.1193   16.8577    1.2197   17.0438    1.2510    0.0000    0.0000
  2.680   17.3204    1.3064   17.2980    1.3031   16.5246    1.1742   16.4702    1.1549   17.0176    1.2605   17.2076    1.2934    0.0000    0.0000
  2.700   17.4914    1.3515   17.4685    1.3480   16.6787    1.2129   16.6219    1.1923   17.1827    1.3035   17.3769    1.3381    0.0000    0.0000
  2.720   17.6680    1.3991   17.6447    1.3955   16.8377    1.2536   16.7784    1.2316   17.3531    1.3488   17.5517    1.3853    0.0000    0.0000
  2.740   17.8506    1.4494   17.8269    1.4456   17.0018    1.2966   16.9398    1.2730   17.5293    1.3967   17.7325    1.4352    0.0000    0.0000
  2.760   18.0394    1.5026   18.0152    1.4986   17.1712    1.3419   17.1065    1.3166   17.7114    1.4473   17.9194    1.4880    0.0000    0.0000
  2.780   18.2349    1.5590   18.2101    1.5548   17.3463    1.3897   17.2786    1.3625   17.8998    1.5010   18.1128    1.5440    0.0000    0.0000
  2.800   18.4373    1.6189   18.4120    1.6145   17.5274    1.4404   17.4564    1.4111   18.0948    1.5578   18.3132    1.6035    0.0000    0.0000
  2.820   18.6470    1.6825   18.6212    1.6779   17.7147    1.4941   17.6403    1.4625   18.2968    1.6183   18.5208    1.6667    0.0000    0.0000
  2.840   18.8644    1.7503   18.8380    1.7454   17.9087    1.5511   17.8306    1.5170   18.5062    1.6826   18.7361    1.7341    0.0000    0.0000
  2.860   19.0901    1.8226   19.0631    1.8175   18.1095    1.6117   18.0276    1.5748   18.7233    1.7512   18.9594    1.8061    0.0000    0.0000
  2.880   19.3244    1.8999   19.2967    1.8945   18.3177    1.6763   18.2317    1.6362   18.9487    1.8245   19.1914    1.8830    0.0000    0.0000
  2.900   19.5678    1.9827   19.5395    1.9770   18.5337    1.7453   18.4432    1.7017   19.1827    1.9029   19.4324    1.9655    0.0000    0.0000
  2.920   19.8210    2.0716   19.7919    2.0655   18.7579    1.8190   18.6626    1.7715   19.4260    1.9870   19.6830    2.0541    0.0001    0.0000
  2.940   20.0845    2.1672   20.0547    2.1608   18.9907    1.8981   18.8903    1.8461   19.6791    2.0774   19.9439    2.1495    0.0002    0.0000
  2.960   20.3589    2.2704   20.3283    2.2635   19.2328    1.9830   19.1269    1.9261   19.9426    2.1749   20.2156    2.2525    0.0003    0.0000
  2.980   20.6449    2.3819   20.6135    2.3746   19.4845    2.0745   19.3729    2.0119   20.2170    2.2802   20.4987    2.3640    0.0007    0.0000
  3.000   20.9433    2.5027   20.9110    2.4950   19.7466    2.1733   19.6288    2.1042   20.5032    2.3942   20.7941    2.4850    0.0013    0.0000
  3.020   21.2548    2.6342   21.2216    2.6259   20.0197    2.2803   19.8952    2.2038   20.8017    2.5182   21.1023    2.6168    0.0025    0.0000
  3.040   21.5803    2.7775   21.5460    2.7686   20.3043    2.3965   20.1728    2.3116   21.1135    2.6533   21.4243    2.7607    0.0045    0.0000
  3.060   21.9205    2.9343   21.8852    2.9248   20.6012    2.5231   20.4622    2.4284   21.4392    2.8010   21.7608    2.9184    0.0079    0.0000
  3.080   22.2763    3.1065   22.2399    3.0963   20.9111    2.6615   20.7643    2.5555   21.7798    2.9630   22.1125    3.0919    0.0136    0.0000
  3.100   22.6487    3.2962   22.6111    3.2852   21.2346    2.8132   21.0797    2.6941   22.1359    3.1414   22.4803    3.2834    0.0225    0.0000
  3.120   23.0384    3.5061   22.9996    3.4941   21.5725    2.9802   21.4094    2.8460   22.5085    3.3386   22.8647    3.4955    0.0364    0.0001
  3.140   23.4462    3.7390   23.4061    3.7261   21.9253    3.1648   21.7540    3.0128   22.8982    3.5575   23.2664    3.7315    0.0573    0.0001
  3.160   23.8727    3.9987   23.8313    3.9847   22.2936    3.3696   22.1144    3.1967   23.3055    3.8013   23.6854    3.9951    0.0879    0.0002
  3.180   24.3183    4.2894   24.2754    4.2741   22.6775    3.5976   22.4913    3.4005   23.7309    4.0741   24.1217    4.2904    0.1316    0.0003
  3.200   24.7827    4.6158   24.7383    4.5993   23.0771    3.8524   22.8855    3.6269   24.1742    4.3806   24.5745    4.6225    0.1928    0.0004
  3.220   25.2653    4.9839   25.2193    4.9658   23.4919    4.1380   23.2974    3.8798   24.6347    4.7263   25.0420    4.9965    0.2769    0.0006
  3.240   25.7645    5.4000   25.7167    5.3802   23.9205    4.4591   23.7271    4.1633   25.1107    5.1172   25.5217    5.4184    0.3903    0.0009
  3.260   26.2773    5.8712   26.2277    5.8497   24.3609    4.8205   24.1744    4.4826   25.5991    5.5606   26.0095    5.8941    0.5408    0.0013
  3.280   26.7995    6.4055   26.7480    6.3820   24.8102    5.2273   24.6382    4.8436   26.0955    6.0638   26.5003    6.4291    0.7375    0.0018
  3.300   27.3250    7.0109   27.2714    6.9853   25.2641    5.6847   25.1162    5.2532   26.5929    6.6346   26.9883    7.0286    0.9908    0.0026
  3.320   27.8462    7.6960   27.7899    7.6681   25.7175    6.1979   25.6046    5.7191   27.0826    7.2800   27.4671    7.6980    1.3112    0.0035
  3.340   28.3528    8.4698   28.2934    8.4391   26.1644    6.7719   26.0972    6.2498   27.5533    8.0063   27.9300    8.4436    1.7094    0.0048
  3.360   28.8316    9.3417   28.7684    9.3075   26.5970    7.4123   26.5849    6.8538   27.9926    8.8187   28.3682    9.2741    2.1936    0.0064
  3.380   29.2647   10.3218   29.1971   10.2829   27.0055    8.1251   27.0551    7.5386   28.3858    9.7224   28.7678   10.2006    2.7686    0.0084
  3.400   29.6270   11.4185   29.5545   11.3734   27.3761    8.9159   27.4910    8.3094   28.7143   10.7229   29.1066   11.2338    3.4331    0.0110
  3.420   29.8843   12.6355   29.8067   12.5822   27.6897    9.7881   27.8724    9.1672   28.9518   11.8243   29.3523   12.3796    4.1784    0.0140
  3.440   29.9932   13.9656   29.9105   13.9014   27.9222   10.7394   28.1772   10.1068   29.0616   13.0241   29.4631   13.6318    4.9869    0.0177
  3.460   29.9046   15.3825   29.8174   15.3040   28.0457   11.7578   28.3829   11.1157   28.9974   14.3027   29.3931   14.9660    5.8328    0.0220
  3.480   29.5736   16.8355   29.4841   16.7379   28.0342   12.8182   28.4706   12.1738   28.7134   15.6147   29.1022   16.3349    6.6833    0.0269
  3.500   28.9748   18.2491   28.8877   18.1271   27.8706   13.8826   28.4270   13.2545   28.1814   16.8858   28.5688   17.6705    7.5023    0.0324
  3.520   28.1167   19.5341   28.0408   19.3836   27.5544   14.9052   28.2485   14.3270   27.4100   18.0237   27.8018   18.8955    8.2536    0.0385
  3.540   27.0483   20.6084   26.9962   20.4293   27.1050   15.8417   27.9413   15.3614   26.4547   18.9418   26.8423   19.9409    8.9063    0.0450
  3.560   25.8503   21.4188   25.8353   21.2180   26.5585   16.6599   27.5207   16.3329   25.4106   19.5874   25.7542   20.7613    9.4377    0.0520
  3.580   24.6132   21.9530   24.6453   21.7441   25.9592   17.3457   27.0056   17.2246   24.3865   19.9601   24.6076   21.3391    9.8369    0.0592
  3.600   23.4151   22.2343   23.4968   22.0354   25.3502   17.9038   26.4152   18.0265   23.4726   20.1096   23.4678   21.6794   10.1049    0.0666
  3.620   22.3089   22.3051   22.4344   22.1338   24.7654   18.3534   25.7657   18.7323   22.7182   20.1138   22.3908   21.8021   10.2544    0.0742
  3.640   21.3238   22.2102   21.4801   22.0794   24.2257   18.7218   25.0715   19.3364   22.1295   20.0499   21.4242   21.7380   10.3072    0.0817
  3.660   20.4742   21.9874   20.6454   21.9029   23.7384   19.0379   24.3468   19.8313   21.6836   19.9751   20.6062   21.5291   10.2909    0.0893
  3.680   19.7704   21.6672   19.9412   21.6281   23.2992   19.3261   23.6103   20.2077   21.3477   19.9218   19.9605   21.2274   10.2355    0.0968
  3.700   19.2228   21.2789   19.3807   21.2792   22.8965   19.6034   22.8890   20.4588   21.0920   19.9038   19.4913   20.8888   10.1695    0.1043
  3.720   18.8401   20.8561   18.9768   20.8868   22.5160   19.8775   22.2173   20.5876   20.8938   19.9257   19.1829   20.5635   10.1173    0.1117
  3.740   18.6229   20.4376   18.7348   20.4894   22.1447   20.1484   21.6306   20.6130   20.7353   19.9886   19.0055   20.2881   10.0970    0.1191
  3.760   18.5595   20.0636   18.6462   20.1282   21.7740   20.4108   21.1550   20.5690   20.6010   20.0911   18.9230   20.0824   10.1190    0.1266
  3.780   18.6244   19.7678   18.6880   19.8388   21.4000   20.6571   20.8000   20.4981   20.4769   20.2283   18.9008   19.9504   10.1856    0.1341
  3.800   18.7833   19.5707   18.8266   19.6446   21.0229   20.8798   20.5564   20.4418   20.3520   20.3915   18.9107   19.8835   10.2920    0.1416
  3.820   19.0011   19.4777   19.0261   19.5525   20.6455   21.0715   20.3993   20.4312   20.2199   20.5677   18.9354   19.8646   10.4274    0.1493
  3.840   19.2488   19.4809   19.2564   19.5557   20.2738   21.2250   20.2955   20.4821   20.0814   20.7423   18.9705   19.8736   10.5780    0.1571
  3.860   19.5090   19.5656   19.4990   19.6393   19.9180   21.3342   20.2120   20.5926   19.9460   20.9027   19.0248   19.8948   10.7293    0.1650
  3.880   19.7759   19.7179   19.7472   19.7885   19.5922   21.3968   20.1244   20.7466   19.8302   21.0434   19.1156   19.9233   10.8694    0.1729
  3.900   20.0513   19.9302   20.0030   19.9942   19.3125   21.4160   20.0222   20.9200   19.7525   21.1695   19.2613   19.9682   10.9915    0.1810
  3.920   20.3381   20.2037   20.2703   20.2562   19.0946   21.4010   19.9108   21.0892   19.7266   21.2964   19.4724   20.0500   11.0947    0.1892
  3.940   20.6348   20.5453   20.5496   20.5808   18.9519   21.3666   19.8082   21.2392   19.7568   21.4445   19.7473   20.1947   11.1846    0.1974
  3.960   20.9332   20.9629   20.8350   20.9763   18.8933   21.3326   19.7391   21.3686   19.8376   21.6340   20.0717   20.4260   11.2711    0.2057
  3.980   21.2194   21.4614   21.1151   21.4490   18.9212   21.3224   19.7258   21.4918   19.9560   21.8797   20.4218   20.7593   11.3663    0.2140
  4.000   21.4768   22.0398   21.3749   22.0008   19.0297   21.3598   19.7798   21.6348   20.0956   22.1889   20.7696   21.1987   11.4818    0.2225
  4.020   21.6890   22.6897   21.5983   22.6272   19.2046   21.4654   19.8966   21.8266   20.2402   22.5621   21.0891   21.7367   11.6264    0.2310
  4.040   21.8433   23.3960   21.7706   23.3173   19.4254   21.6522   20.0572   22.0896   20.3768   22.9933   21.3613   22.3565   11.8054    0.2397
  4.060   21.9354   24.1376   21.8831   24.0527   19.6708   21.9231   20.2354   22.4308   20.4979   23.4718   21.5777   23.0364   12.0205    0.2485
  4.080   21.9739   24.8925   21.9386   24.8117   19.9247   22.2727   20.4099   22.8421   20.6049   23.9859   21.7420   23.7554   12.2727    0.2576
  4.100   21.9810   25.6478   21.9533   25.5774   20.1794   22.6919   20.5734   23.3079   20.7083   24.5281   21.8683   24.4995   12.5644    0.2668
  4.120   21.9845   26.4073   21.9531   26.3465   20.4363   23.1747   20.7329   23.8174   20.8235   25.1013   21.9767   25.2669   12.9024    0.2763
  4.140   22.0067   27.1935   21.9631   27.1337   20.7017   23.7227   20.9019   24.3731   20.9646   25.7200   22.0863   26.0694   13.2994    0.2860
  4.160   22.0548   28.0403   21.9983   27.9690   20.9817   24.3469   21.0894   24.9912   21.1390   26.4077   22.2090   26.9314   13.7742    0.2962
  4.180   22.1183   28.9837   22.0569   28.8906   21.2768   25.0674   21.2930   25.6955   21.3449   27.1950   22.3430   27.8863   14.3497    0.3067
  4.200   22.1709   30.0548   22.1179   29.9369   21.5764   25.9106   21.4965   26.5094   21.5681   28.1170   22.4692   28.9694   15.0498    0.3178
  4.220   22.1746   31.2738   22.1427   31.1374   21.8548   26.9023   21.6731   27.4490   21.7772   29.2087   22.5503   30.2094   15.8951    0.3295
  4.240   22.0848   32.6477   22.0800   32.5057   22.0720   28.0593   21.7907   28.5183   21.9227   30.4964   22.5345   31.6200   16.8994    0.3419
  4.260   21.8557   34.1689   21.8748   34.0356   22.1797   29.3824   21.8199   29.7105   21.9408   31.9879   22.3641   33.1934   18.0666    0.3552
  4.280   21.4452   35.8180   21.4762   35.7025   22.1306   30.8540   21.7381   31.0127   21.7626   33.6666   21.9857   34.9000   19.3899    0.3694
  4.300   20.8170   37.5662   20.8443   37.4679   21.8858   32.4417   21.5289   32.4125   21.3253   35.4907   21.3604   36.6937   20.8521    0.3847
  4.320   19.9410   39.3782   19.9526   39.2857   21.4194   34.1046   21.1775   33.9013   20.5823   37.3973   20.4671   38.5208   22.4275    0.4012
  4.340   18.7937   41.2124   18.7874   41.1081   20.7189   35.7995   20.6646   35.4726   19.5106   39.3111   19.3017   40.3291   24.0840    0.4189
  4.360   17.3588   43.0222   17.3450   42.8901   19.7833   37.4858   19.9640   37.1175   18.1138   41.1555   17.8719   42.0737   25.7851    0.4379
  4.380   15.6293   44.7571   15.6269   44.5906   18.6192   39.1292   19.0434   38.8181   16.4187   42.8650   16.1899   43.7183   27.4911    0.4581
  4.400   13.6075   46.3649   13.6360   46.1702   17.2367   40.7028   17.8696   40.5430   14.4660   44.3933   14.2678   45.2328   29.1595    0.4795
  4.420   11.3055   47.7944   11.3772   47.5876   15.6433   42.1867   16.4160   42.2473   12.2964   45.7157   12.1147   46.5884   30.7444    0.5021
  4.440    8.7427   48.9979    8.8585   48.7979   13.8398   43.5620   14.6671   43.8774    9.9380   46.8213    9.7381   47.7522   32.1959    0.5258
  4.460    5.9419   49.9291    6.0933   49.7508   11.8209   44.8029   12.6189   45.3745    7.4021   47.6972    7.1494   48.6841   33.4609    0.5504
  4.480    2.9314   50.5390    3.1050   50.3888    9.5829   45.8707   10.2790   46.6760    4.6918   48.3134    4.3707   49.3377   34.4839    0.5757
  4.500   -0.2493   50.7738   -0.0653   50.6497    7.1335   46.7155    7.6691   47.7165    1.8211   48.6183    1.4394   49.6679   35.2108    0.6016
  4.520   -3.5416   50.5809   -3.3531   50.4757    4.4975   47.2836    4.8278   48.4318   -1.1684   48.5496   -1.5945   49.6390   35.5931    0.6278
  4.540   -6.8671   49.9181   -6.6725   49.8249    1.7156   47.5249    1.8106   48.7645   -4.2026   48.0537   -4.6764   49.2263   35.5932    0.6539
  4.560  -10.1312   48.7614   -9.9235   48.6785   -1.1574   47.3958   -1.3126   48.6679   -7.1816   47.1028   -7.7510   48.4100   35.1899    0.6798
  4.580  -13.2273   47.1102  -13.0000   47.0436   -4.0512   46.8617   -4.4581   48.1076   -9.9934   45.7054  -10.7547   47.1700   34.3828    0.7050
  4.600  -16.0432   44.9932  -15.7951   44.9548   -6.8792   45.9046   -7.5276   47.0670  -12.5315   43.9099  -13.6052   45.4916   33.1944    0.7294
  4.620  -18.4700   42.4739  -18.2088   42.4762   -9.5440   44.5339  -10.4107   45.5568  -14.7122   41.7991  -16.1978   43.3834   31.6702    0.7527
  4.640  -20.4172   39.6524  -20.1583   39.7023  -11.9508   42.7922  -12.9966   43.6243  -16.4872   39.4757  -18.4190   40.8961   29.8760    0.7747
  4.660  -21.8297   36.6573  -21.5907   36.7527  -14.0237   40.7526  -15.1926   41.3549  -17.8459   37.0447  -20.1718   38.1270   27.8928    0.7952
  4.680  -22.6991   33.6294  -22.4945   33.7591  -15.7170   38.5052  -16.9420   38.8602  -18.8091   34.5979  -21.4003   35.2087   25.8103    0.8142
  4.700  -23.0652   30.6988  -22.9016   30.8468  -17.0165   36.1416  -18.2303   36.2570  -19.4169   32.2057  -22.1024   32.2833   23.7197    0.8316
  4.720  -23.0037   27.9662  -22.8795   28.1167  -17.9314   33.7437  -19.0788   33.6490  -19.7162   29.9164  -22.3251   29.4770   21.7070    0.8475
  4.740  -22.6087   25.4941  -22.5160   25.6355  -18.4857   31.3804  -19.5307   31.1175  -19.7525   27.7622  -22.1485   26.8825   19.8477    0.8621
  4.760  -21.9742   23.3083  -21.9028   23.4350  -18.7126   29.1090  -19.6387   28.7215  -19.5681   25.7650  -21.6660   24.5532   18.2032    0.8755
  4.780  -21.1823   21.4062  -21.1226   21.5179  -18.6522   26.9756  -19.4581   26.5014  -19.2032   23.9391  -20.9673   22.5082   16.8195    0.8879
  4.800  -20.2968   19.7678  -20.2421   19.8675  -18.3491   25.0153  -19.0422   24.4829  -18.6954   22.2922  -20.1284   20.7417   15.7269    0.8994
  4.820  -19.3633   18.3654  -19.3101   18.4576  -17.8495   23.2525  -18.4407   22.6816  -18.0795   20.8258  -19.2073   19.2344   14.9415    0.9104
  4.840  -18.4122   17.1720  -18.3599   17.2603  -17.2001   21.7024  -17.7006   21.1053  -17.3857   19.5377  -18.2466   17.9626   14.4664    0.9210
  4.860  -17.4650   16.1641  -17.4142   16.2507  -16.4474   20.3713  -16.8665   19.7554  -16.6417   18.4233  -17.2783   16.9035   14.2929    0.9315
  4.880  -16.5389   15.3222  -16.4905   15.4079  -15.6368   19.2570  -15.9814   18.6258  -15.8737   17.4765  -16.3287   16.0352   14.4018    0.9421
  4.900  -15.6501   14.6280  -15.6043   14.7130  -14.8108   18.3469  -15.0848   17.7024  -15.1079   16.6872  -15.4211   15.3350   14.7642    0.9530
  4.920  -14.8132   14.0614  -14.7696   14.1460  -14.0052   17.6192  -14.2094   16.9632  -14.3688   16.0404  -14.5745   14.7766   15.3427    0.9643
  4.940  -14.0385   13.5994  -13.9971   13.6843  -13.2459   17.0456  -13.3791   16.3813  -13.6765   15.5147  -13.8008   14.3309   16.0930    0.9761
  4.960  -13.3304   13.2179  -13.2916   13.3040  -12.5471   16.5964  -12.6078   15.9293  -13.0438   15.0847  -13.1022   13.9687   16.9660    0.9886
  4.980  -12.6858   12.8945  -12.6507   12.9820  -11.9137   16.2455  -11.9017   15.5825  -12.4744   14.7241  -12.4721   13.6659   17.9100    1.0017
  5.000  -12.0957   12.6118  -12.0653   12.7002  -11.3459   15.9726  -11.2625   15.3204  -11.9635   14.4101  -11.8994   13.4071   18.8736    1.0156
  5.020  -11.5487   12.3594  -11.5235   12.4472  -10.8427   15.7619  -10.6901   15.1264  -11.5008   14.1257  -11.3740   13.1850   19.8082    1.0302
  5.040  -11.0344   12.1334  -11.0135   12.2191  -10.4038   15.5993  -10.1836   14.9857  -11.0739   13.8615  -10.8901   12.9973   20.6711    1.0453
  5.060  -10.5463   11.9338  -10.5278   12.0167  -10.0284   15.4703   -9.7415   14.8841  -10.6715   13.6136  -10.4472   12.8416   21.4278    1.0611
  5.080  -10.0818   11.7611  -10.0635   11.8420   -9.7127   15.3589   -9.3597   14.8069  -10.2853   13.3822  -10.0474   12.7126   22.0547    1.0773
  5.100   -9.6401   11.6141   -9.6211   11.6951   -9.4479   15.2496   -9.0301   14.7404   -9.9094   13.1681   -9.6918   12.6006   22.5411    1.0939
  5.120   -9.2203   11.4903   -9.2010   11.5737   -9.2192   15.1302   -8.7402   14.6746   -9.5388   12.9729   -9.3771   12.4935   22.8912    1.1107
  5.140   -8.8196   11.3873   -8.8016   11.4742   -9.0072   14.9957   -8.4742   14.6052   -9.1682   12.7995   -9.0932   12.3804   23.1242    1.1277
  5.160   -8.4346   11.3047   -8.4195   11.3949   -8.7916   14.8513   -8.2166   14.5362   -8.7931   12.6541   -8.8256   12.2564   23.2730    1.1448
  5.180   -8.0628   11.2443   -8.0508   11.3370   -8.5568   14.7121   -7.9558   14.4793   -8.4124   12.5464   -8.5596   12.1248   23.3806    1.1620
  5.200   -7.7040   11.2091   -7.6949   11.3045   -8.2976   14.6004   -7.6891   14.4517   -8.0304   12.4874   -8.2851   11.9955   23.4952    1.1793
  5.220   -7.3613   11.2018   -7.3545   11.3010   -8.0216   14.5396   -7.4245   14.4703   -7.6577   12.4865   -7.9996   11.8810   23.6635    1.1966
  5.240   -7.0390   11.2222   -7.0356   11.3272   -7.7481   14.5468   -7.1795   14.5460   -7.3095   12.5479   -7.7075   11.7917   23.9240    1.2142
  5.260   -6.7411   11.2674   -6.7436   11.3798   -7.5038   14.6284   -6.9761   14.6792   -7.0026   12.6698   -7.4168   11.7326   24.3010    1.2321
  5.280   -6.4692   11.3335   -6.4813   11.4535   -7.3166   14.7784   -6.8351   14.8600   -6.7522   12.8447   -7.1352   11.7037   24.8012    1.2503
  5.300   -6.2227   11.4172   -6.2487   11.5431   -7.2101   14.9798   -6.7719   15.0706   -6.5718   13.0614   -6.8673   11.7019   25.4127    1.2690
  5.320   -6.0010   11.5178   -6.0446   11.6453   -7.2012   15.2077   -6.7943   15.2887   -6.4730   13.3053   -6.6153   11.7246   26.1071    1.2882
  5.340   -5.8057   11.6356   -5.8685   11.7586   -7.2976   15.4317   -6.9031   15.4900   -6.4653   13.5569   -6.3803   11.7702   26.8443    1.3079
  5.360   -5.6411   11.7693   -5.7213   11.8804   -7.4968   15.6182   -7.0913   15.6499   -6.5530   13.7911   -6.1638   11.8376   27.5792    1.3282
  5.380   -5.5117   11.9139   -5.6036   12.0067   -7.7829   15.7344   -7.3430   15.7457   -6.7309   13.9783   -5.9676   11.9253   28.2691    1.3490
  5.400   -5.4192   12.0606   -5.5135   12.1321   -8.1275   15.7544   -7.6335   15.7606   -6.9807   14.0904   -5.7924   12.0314   28.8809    1.3702
  5.420   -5.3599   12.2006   -5.4461   12.2529   -8.4925   15.6657   -7.9321   15.6889   -7.2724   14.1083   -5.6379   12.1551   29.3954    1.3918
  5.440   -5.3256   12.3283   -5.3949   12.3695   -8.8386   15.4727   -8.2081   15.5378   -7.5707   14.0268   -5.5041   12.2977   29.8098    1.4137
  5.460   -5.3076   12.4440   -5.3557   12.4863   -9.1330   15.1945   -8.4371   15.3257   -7.8422   13.8560   -5.3931   12.4626   30.1365    1.4359
  5.480   -5.2995   12.5525   -5.3288   12.6097   -9.3545   14.8599   -8.6040   15.0779   -8.0629   13.6171   -5.3116   12.6529   30.3985    1.4582
  5.500   -5.3000   12.6605   -5.3193   12.7449   -9.4959   14.5013   -8.7046   14.8228   -8.2209   13.3358   -5.2700   12.8682   30.6234    1.4807
  5.520   -5.3118   12.7737   -5.3355   12.8933   -9.5624   14.1484   -8.7456   14.5883   -8.3154   13.0366   -5.2801   13.1022   30.8355    1.5034
  5.540   -5.3411   12.8953   -5.3870   13.0518   -9.5692   13.8244   -8.7451   14.3974   -8.3539   12.7383   -5.3508   13.3429   31.0505    1.5262
  5.560   -5.3962   13.0243   -5.4827   13.2119   -9.5372   13.5427   -8.7296   14.2632   -8.3472   12.4517   -5.4867   13.5745   31.2713    1.5492
  5.580   -5.4844   13.1544   -5.6282   13.3599   -9.4885   13.3069   -8.7296   14.1847   -8.3053   12.1810   -5.6867   13.7798   31.4881    1.5723
  5.600   -5.6102   13.2751   -5.8229   13.4782   -9.4426   13.1113   -8.7709   14.1465   -8.2341   11.9264   -5.9443   13.9417   31.6819    1.5956
  5.620   -5.7723   13.3733   -6.0569   13.5485   -9.4126   12.9431   -8.8680   14.1227   -8.1352   11.6875   -6.2475   14.0444   31.8312    1.6190
  5.640   -5.9627   13.4366   -6.3114   13.5577   -9.4029   12.7867   -9.0205   14.0847   -8.0072   11.4667   -6.5782   14.0758   31.9200    1.6425
  5.660   -6.1674   13.4566   -6.5624   13.5028   -9.4095   12.6280   -9.2149   14.0095   -7.8488   11.2696   -6.9129   14.0303   31.9448    1.6659
  5.680   -6.3688   13.4324   -6.7867   13.3915   -9.4218   12.4591   -9.4297   13.8848   -7.6602   11.1043   -7.2268   13.9127   31.9193    1.6894
  5.700   -6.5503   13.3720   -6.9670   13.2404   -9.4282   12.2797   -9.6427   13.7098   -7.4445   10.9809   -7.4988   13.7371   31.8751    1.7128
  5.720   -6.7004   13.2903   -7.0937   13.0711   -9.4195   12.0960   -9.8359   13.4933   -7.2079   10.9103   -7.7154   13.5245   31.8580    1.7362
  5.740   -6.8164   13.2066   -7.1665   12.9071   -9.3917   11.9181   -9.9986   13.2494   -6.9615   10.9034   -7.8724   13.2982   31.9203    1.7597
  5.760   -6.9045   13.1388   -7.1942   12.7703   -9.3462   11.7567  -10.1280   12.9938   -6.7217   10.9694   -7.9742   13.0802   32.1108    1.7833
  5.780   -6.9786   13.1003   -7.1935   12.6776   -9.2898   11.6211  -10.2287   12.7397   -6.5104   11.1119   -8.0321   12.8888   32.4643    1.8072
  5.800   -7.0573   13.0968   -7.1868   12.6373   -9.2331   11.5169  -10.3101   12.4948   -6.3522   11.3266   -8.0625   12.7364   32.9940    1.8314
  5.820   -7.1593   13.1253   -7.1970   12.6485   -9.1885   11.4450  -10.3818   12.2603   -6.2705   11.6001   -8.0847   12.6291   33.6855    1.8562
  5.840   -7.3010   13.1758   -7.2446   12.7021   -9.1684   11.4008  -10.4505   12.0326   -6.2845   11.9107   -8.1186   12.5661   34.4978    1.8815
  5.860   -7.4933   13.2325   -7.3451   12.7834   -9.1827   11.3757  -10.5184   11.8070   -6.4059   12.2308   -8.1830   12.5394   35.3666    1.9075
  5.880   -7.7414   13.2766   -7.5095   12.8733   -9.2381   11.3578  -10.5851   11.5808   -6.6379   12.5290   -8.2933   12.5347   36.2127    1.9341
  5.900   -8.0432   13.2878   -7.7424   12.9493   -9.3372   11.3330  -10.6500   11.3528   -6.9733   12.7728   -8.4589   12.5315   36.9521    1.9613
  5.920   -8.3894   13.2472   -8.0401   12.9868   -9.4778   11.2865  -10.7137   11.1225   -7.3940   12.9324   -8.6806   12.5065   37.5066    1.9889
  5.940   -8.7644   13.1401   -8.3896   12.9631   -9.6523   11.2044  -10.7776   10.8885   -7.8718   12.9853   -8.9495   12.4375   37.8136    2.0155
  5.960   -9.1486   12.9577   -8.7700   12.8617   -9.8484   11.0761  -10.8423   10.6473   -8.3729   12.9202   -9.2489   12.3072   37.8333    2.0479
  5.980   -9.5205   12.6980   -9.1558   12.6748  -10.0507   10.8957  -10.9069   10.3945   -8.8623   12.7376   -9.5569   12.1058   37.5525    2.0583
