# RPA macroscopic dielectric function without local fields
# Tolerance =  0.0200 0.0200
# npweps  = 59
# npwwfn  = 137
# nbands  = 6
# loband  = 2
# nkibz   = 512
# nkbz    = 512
# Lorentzian broadening =  0.1500 [eV]
# List of q-points for the optical limit:
# q =  0.938821, 0.000000, 0.000000, [Reduced coords] 
# q =  0.000000, 0.938821, 0.000000, [Reduced coords] 
# q =  0.000000, 0.000000, 0.938821, [Reduced coords] 
# q =  0.000000, 0.813043, 0.813043, [Reduced coords] 
# q =  0.813043, 0.000000, 0.813043, [Reduced coords] 
# q =  0.813043, 0.813043, 0.000000, [Reduced coords] 
# omega [eV]    RE(eps(q=1)) IM(eps(q=1) RE(eps(q=2) ) ... DOS   IDOS
  0.000   13.1670    0.0000   13.1545    0.0000   12.7562    0.0000   12.7473    0.0000   13.0011    0.0000   13.0993    0.0000    0.0000    0.0000
  0.020   13.1674    0.0058   13.1549    0.0058   12.7566    0.0054   12.7477    0.0054   13.0015    0.0057   13.0997    0.0057    0.0000    0.0000
  0.040   13.1685    0.0116   13.1560    0.0116   12.7577    0.0108   12.7488    0.0108   13.0026    0.0113   13.1009    0.0115    0.0000    0.0000
  0.060   13.1704    0.0174   13.1579    0.0174   12.7595    0.0163   12.7506    0.0162   13.0045    0.0170   13.1028    0.0173    0.0000    0.0000
  0.080   13.1731    0.0232   13.1606    0.0232   12.7620    0.0217   12.7531    0.0216   13.0071    0.0227   13.1054    0.0230    0.0000    0.0000
  0.100   13.1766    0.0291   13.1641    0.0290   12.7652    0.0271   12.7563    0.0270   13.0105    0.0283   13.1089    0.0288    0.0000    0.0000
  0.120   13.1808    0.0349   13.1683    0.0348   12.7691    0.0326   12.7602    0.0324   13.0146    0.0340   13.1130    0.0346    0.0000    0.0000
  0.140   13.1858    0.0408   13.1733    0.0407   12.7738    0.0381   12.7648    0.0378   13.0195    0.0398   13.1180    0.0404    0.0000    0.0000
  0.160   13.1916    0.0466   13.1790    0.0465   12.7792    0.0435   12.7702    0.0433   13.0251    0.0455   13.1237    0.0462    0.0000    0.0000
  0.180   13.1981    0.0525   13.1856    0.0524   12.7853    0.0490   12.7763    0.0488   13.0315    0.0512   13.1302    0.0520    0.0000    0.0000
  0.200   13.2055    0.0584   13.1929    0.0583   12.7922    0.0546   12.7831    0.0543   13.0387    0.0570   13.1375    0.0579    0.0000    0.0000
  0.220   13.2136    0.0644   13.2010    0.0643   12.7998    0.0601   12.7907    0.0598   13.0466    0.0628   13.1455    0.0638    0.0000    0.0000
  0.240   13.2225    0.0703   13.2099    0.0702   12.8081    0.0657   12.7989    0.0653   13.0553    0.0686   13.1544    0.0697    0.0000    0.0000
  0.260   13.2322    0.0763   13.2196    0.0762   12.8171    0.0713   12.8079    0.0709   13.0647    0.0745   13.1640    0.0756    0.0000    0.0000
  0.280   13.2427    0.0824   13.2301    0.0822   12.8269    0.0769   12.8177    0.0765   13.0750    0.0803   13.1744    0.0816    0.0000    0.0000
  0.300   13.2540    0.0885   13.2413    0.0883   12.8375    0.0826   12.8282    0.0821   13.0860    0.0863   13.1855    0.0876    0.0000    0.0000
  0.320   13.2661    0.0946   13.2534    0.0944   12.8488    0.0883   12.8394    0.0878   13.0978    0.0922   13.1975    0.0937    0.0000    0.0000
  0.340   13.2790    0.1007   13.2663    0.1005   12.8608    0.0940   12.8514    0.0935   13.1104    0.0982   13.2103    0.0998    0.0000    0.0000
  0.360   13.2927    0.1069   13.2800    0.1067   12.8737    0.0998   12.8641    0.0992   13.1238    0.1043   13.2239    0.1059    0.0000    0.0000
  0.380   13.3073    0.1132   13.2945    0.1130   12.8872    0.1056   12.8776    0.1050   13.1380    0.1104   13.2383    0.1121    0.0000    0.0000
  0.400   13.3226    0.1195   13.3099    0.1192   12.9016    0.1115   12.8919    0.1108   13.1529    0.1165   13.2536    0.1184    0.0000    0.0000
  0.420   13.3388    0.1258   13.3260    0.1256   12.9167    0.1174   12.9069    0.1167   13.1688    0.1227   13.2696    0.1246    0.0000    0.0000
  0.440   13.3559    0.1322   13.3431    0.1320   12.9326    0.1233   12.9228    0.1226   13.1854    0.1289   13.2865    0.1310    0.0000    0.0000
  0.460   13.3738    0.1387   13.3609    0.1385   12.9493    0.1294   12.9394    0.1286   13.2028    0.1352   13.3042    0.1374    0.0000    0.0000
  0.480   13.3926    0.1452   13.3797    0.1450   12.9668    0.1354   12.9568    0.1346   13.2211    0.1416   13.3228    0.1439    0.0000    0.0000
  0.500   13.4122    0.1518   13.3992    0.1516   12.9851    0.1416   12.9750    0.1407   13.2403    0.1480   13.3423    0.1504    0.0000    0.0000
  0.520   13.4327    0.1585   13.4197    0.1582   13.0043    0.1478   12.9940    0.1469   13.2603    0.1546   13.3626    0.1570    0.0000    0.0000
  0.540   13.4541    0.1653   13.4411    0.1650   13.0242    0.1541   13.0138    0.1531   13.2811    0.1611   13.3838    0.1637    0.0000    0.0000
  0.560   13.4764    0.1721   13.4633    0.1718   13.0450    0.1604   13.0345    0.1594   13.3029    0.1678   13.4059    0.1705    0.0000    0.0000
  0.580   13.4996    0.1790   13.4865    0.1787   13.0666    0.1668   13.0560    0.1658   13.3255    0.1745   13.4288    0.1773    0.0000    0.0000
  0.600   13.5237    0.1860   13.5105    0.1857   13.0891    0.1733   13.0783    0.1723   13.3490    0.1813   13.4527    0.1843    0.0000    0.0000
  0.620   13.5487    0.1931   13.5355    0.1928   13.1124    0.1799   13.1015    0.1788   13.3734    0.1882   13.4775    0.1913    0.0000    0.0000
  0.640   13.5747    0.2003   13.5615    0.1999   13.1366    0.1865   13.1256    0.1854   13.3987    0.1952   13.5033    0.1984    0.0000    0.0000
  0.660   13.6016    0.2076   13.5884    0.2072   13.1617    0.1933   13.1505    0.1921   13.4250    0.2023   13.5300    0.2056    0.0000    0.0000
  0.680   13.6295    0.2150   13.6162    0.2146   13.1877    0.2001   13.1763    0.1989   13.4522    0.2095   13.5576    0.2129    0.0000    0.0000
  0.700   13.6584    0.2225   13.6450    0.2221   13.2146    0.2071   13.2031    0.2058   13.4803    0.2168   13.5862    0.2204    0.0000    0.0000
  0.720   13.6883    0.2301   13.6749    0.2297   13.2424    0.2141   13.2307    0.2127   13.5094    0.2242   13.6158    0.2279    0.0000    0.0000
  0.740   13.7192    0.2378   13.7057    0.2374   13.2712    0.2213   13.2593    0.2198   13.5395    0.2317   13.6464    0.2356    0.0000    0.0000
  0.760   13.7511    0.2457   13.7375    0.2452   13.3009    0.2285   13.2888    0.2270   13.5706    0.2393   13.6780    0.2433    0.0000    0.0000
  0.780   13.7841    0.2537   13.7704    0.2532   13.3316    0.2359   13.3193    0.2343   13.6027    0.2471   13.7106    0.2512    0.0000    0.0000
  0.800   13.8181    0.2618   13.8044    0.2613   13.3632    0.2434   13.3507    0.2418   13.6359    0.2550   13.7443    0.2593    0.0000    0.0000
  0.820   13.8532    0.2700   13.8394    0.2695   13.3958    0.2510   13.3831    0.2493   13.6701    0.2630   13.7791    0.2674    0.0000    0.0000
  0.840   13.8894    0.2784   13.8755    0.2779   13.4295    0.2587   13.4165    0.2570   13.7053    0.2712   13.8149    0.2758    0.0000    0.0000
  0.860   13.9267    0.2870   13.9128    0.2864   13.4641    0.2666   13.4510    0.2648   13.7417    0.2795   13.8519    0.2842    0.0000    0.0000
  0.880   13.9651    0.2957   13.9511    0.2951   13.4999    0.2746   13.4865    0.2727   13.7791    0.2880   13.8899    0.2929    0.0000    0.0000
  0.900   14.0047    0.3046   13.9906    0.3040   13.5366    0.2828   13.5230    0.2808   13.8177    0.2966   13.9292    0.3017    0.0000    0.0000
  0.920   14.0455    0.3136   14.0313    0.3130   13.5745    0.2911   13.5606    0.2891   13.8574    0.3054   13.9695    0.3106    0.0000    0.0000
  0.940   14.0874    0.3229   14.0732    0.3223   13.6135    0.2996   13.5993    0.2975   13.8982    0.3143   14.0111    0.3198    0.0000    0.0000
  0.960   14.1306    0.3323   14.1163    0.3317   13.6536    0.3082   13.6391    0.3060   13.9403    0.3235   14.0539    0.3291    0.0000    0.0000
  0.980   14.1751    0.3419   14.1607    0.3413   13.6948    0.3170   13.6801    0.3148   13.9835    0.3328   14.0979    0.3386    0.0000    0.0000
  1.000   14.2208    0.3517   14.2063    0.3511   13.7372    0.3260   13.7222    0.3237   14.0280    0.3423   14.1432    0.3483    0.0000    0.0000
  1.020   14.2678    0.3618   14.2532    0.3611   13.7808    0.3352   13.7654    0.3328   14.0738    0.3521   14.1897    0.3583    0.0000    0.0000
  1.040   14.3161    0.3720   14.3015    0.3713   13.8256    0.3446   13.8099    0.3420   14.1209    0.3620   14.2376    0.3684    0.0000    0.0000
  1.060   14.3658    0.3825   14.3511    0.3818   13.8717    0.3542   13.8557    0.3515   14.1692    0.3722   14.2868    0.3788    0.0000    0.0000
  1.080   14.4169    0.3933   14.4021    0.3925   13.9190    0.3640   13.9026    0.3612   14.2189    0.3826   14.3374    0.3894    0.0000    0.0000
  1.100   14.4694    0.4043   14.4545    0.4035   13.9676    0.3740   13.9509    0.3711   14.2700    0.3932   14.3894    0.4003    0.0000    0.0000
  1.120   14.5234    0.4155   14.5083    0.4147   14.0176    0.3843   14.0005    0.3813   14.3225    0.4041   14.4429    0.4114    0.0000    0.0000
  1.140   14.5789    0.4270   14.5637    0.4262   14.0689    0.3948   14.0514    0.3916   14.3765    0.4153   14.4978    0.4228    0.0000    0.0000
  1.160   14.6358    0.4389   14.6206    0.4380   14.1216    0.4055   14.1037    0.4023   14.4319    0.4267   14.5542    0.4345    0.0000    0.0000
  1.180   14.6944    0.4510   14.6790    0.4501   14.1757    0.4165   14.1574    0.4131   14.4888    0.4384   14.6121    0.4465    0.0000    0.0000
  1.200   14.7545    0.4634   14.7390    0.4625   14.2313    0.4278   14.2125    0.4243   14.5473    0.4505   14.6717    0.4588    0.0000    0.0000
  1.220   14.8163    0.4762   14.8007    0.4752   14.2883    0.4394   14.2691    0.4357   14.6074    0.4628   14.7329    0.4715    0.0000    0.0000
  1.240   14.8798    0.4893   14.8640    0.4883   14.3469    0.4513   14.3272    0.4474   14.6691    0.4755   14.7957    0.4844    0.0000    0.0000
  1.260   14.9450    0.5028   14.9291    0.5017   14.4071    0.4635   14.3869    0.4595   14.7324    0.4885   14.8603    0.4978    0.0000    0.0000
  1.280   15.0119    0.5166   14.9959    0.5155   14.4689    0.4760   14.4481    0.4718   14.7975    0.5019   14.9266    0.5115    0.0000    0.0000
  1.300   15.0807    0.5309   15.0646    0.5298   14.5323    0.4888   14.5110    0.4845   14.8644    0.5157   14.9947    0.5256    0.0000    0.0000
  1.320   15.1514    0.5455   15.1351    0.5444   14.5974    0.5021   14.5756    0.4975   14.9330    0.5298   15.0647    0.5401    0.0000    0.0000
  1.340   15.2240    0.5606   15.2076    0.5594   14.6643    0.5157   14.6419    0.5109   15.0036    0.5444   15.1366    0.5550    0.0000    0.0000
  1.360   15.2986    0.5762   15.2820    0.5750   14.7330    0.5297   14.7099    0.5247   15.0760    0.5594   15.2104    0.5704    0.0000    0.0000
  1.380   15.3753    0.5922   15.3585    0.5910   14.8035    0.5441   14.7798    0.5389   15.1504    0.5749   15.2863    0.5863    0.0000    0.0000
  1.400   15.4540    0.6088   15.4371    0.6075   14.8759    0.5589   14.8515    0.5535   15.2269    0.5908   15.3642    0.6026    0.0000    0.0000
  1.420   15.5349    0.6258   15.5178    0.6245   14.9502    0.5742   14.9252    0.5686   15.3054    0.6073   15.4443    0.6195    0.0000    0.0000
  1.440   15.6181    0.6435   15.6008    0.6421   15.0266    0.5900   15.0008    0.5841   15.3862    0.6243   15.5267    0.6370    0.0000    0.0000
  1.460   15.7036    0.6617   15.6861    0.6602   15.1050    0.6063   15.0785    0.6001   15.4691    0.6418   15.6113    0.6550    0.0000    0.0000
  1.480   15.7914    0.6805   15.7738    0.6790   15.1856    0.6231   15.1583    0.6167   15.5544    0.6600   15.6983    0.6736    0.0000    0.0000
  1.500   15.8818    0.7000   15.8639    0.6985   15.2684    0.6405   15.2402    0.6337   15.6420    0.6787   15.7877    0.6929    0.0000    0.0000
  1.520   15.9747    0.7202   15.9566    0.7186   15.3535    0.6585   15.3244    0.6514   15.7321    0.6981   15.8796    0.7129    0.0000    0.0000
  1.540   16.0702    0.7411   16.0519    0.7394   15.4409    0.6771   15.4109    0.6696   15.8247    0.7182   15.9742    0.7336    0.0000    0.0000
  1.560   16.1684    0.7628   16.1499    0.7611   15.5307    0.6963   15.4998    0.6885   15.9199    0.7391   16.0714    0.7550    0.0000    0.0000
  1.580   16.2695    0.7853   16.2508    0.7835   15.6231    0.7162   15.5912    0.7080   16.0179    0.7607   16.1714    0.7773    0.0000    0.0000
  1.600   16.3735    0.8086   16.3545    0.8067   15.7181    0.7369   15.6851    0.7282   16.1186    0.7831   16.2744    0.8003    0.0000    0.0000
  1.620   16.4805    0.8328   16.4613    0.8309   15.8157    0.7583   15.7816    0.7492   16.2223    0.8064   16.3803    0.8243    0.0000    0.0000
  1.640   16.5907    0.8581   16.5713    0.8561   15.9162    0.7805   15.8809    0.7710   16.3291    0.8306   16.4894    0.8493    0.0000    0.0000
  1.660   16.7042    0.8843   16.6845    0.8822   16.0195    0.8036   15.9830    0.7935   16.4389    0.8557   16.6017    0.8753    0.0000    0.0000
  1.680   16.8210    0.9116   16.8010    0.9095   16.1259    0.8277   16.0881    0.8170   16.5520    0.8819   16.7173    0.9023    0.0000    0.0000
  1.700   16.9414    0.9401   16.9211    0.9379   16.2353    0.8526   16.1962    0.8414   16.6686    0.9092   16.8365    0.9305    0.0000    0.0000
  1.720   17.0655    0.9698   17.0449    0.9675   16.3480    0.8787   16.3075    0.8668   16.7886    0.9377   16.9593    0.9599    0.0000    0.0000
  1.740   17.1934    1.0009   17.1725    0.9984   16.4641    0.9058   16.4220    0.8932   16.9123    0.9674   17.0859    0.9906    0.0000    0.0000
  1.760   17.3253    1.0333   17.3041    1.0308   16.5836    0.9341   16.5400    0.9208   17.0398    0.9985   17.2164    1.0228    0.0000    0.0000
  1.780   17.4613    1.0672   17.4398    1.0646   16.7068    0.9636   16.6616    0.9495   17.1714    1.0309   17.3510    1.0564    0.0000    0.0000
  1.800   17.6017    1.1028   17.5799    1.1000   16.8338    0.9945   16.7868    0.9795   17.3070    1.0649   17.4900    1.0916    0.0000    0.0000
  1.820   17.7466    1.1400   17.7244    1.1372   16.9648    1.0267   16.9159    1.0108   17.4471    1.1005   17.6334    1.1285    0.0000    0.0000
  1.840   17.8963    1.1791   17.8737    1.1761   17.0999    1.0606   17.0490    1.0436   17.5916    1.1378   17.7816    1.1672    0.0000    0.0000
  1.860   18.0509    1.2202   18.0280    1.2171   17.2393    1.0960   17.1863    1.0780   17.7409    1.1770   17.9346    1.2079    0.0000    0.0000
  1.880   18.2108    1.2634   18.1874    1.2602   17.3832    1.1332   17.3280    1.1140   17.8952    1.2183   18.0928    1.2507    0.0000    0.0000
  1.900   18.3761    1.3089   18.3523    1.3055   17.5319    1.1723   17.4743    1.1517   18.0547    1.2617   18.2564    1.2959    0.0000    0.0000
  1.920   18.5471    1.3570   18.5229    1.3534   17.6854    1.2134   17.6254    1.1914   18.2196    1.3074   18.4256    1.3435    0.0000    0.0000
  1.940   18.7241    1.4077   18.6994    1.4039   17.8442    1.2567   17.7815    1.2332   18.3903    1.3557   18.6008    1.3938    0.0000    0.0000
  1.960   18.9074    1.4613   18.8823    1.4573   18.0084    1.3024   17.9429    1.2771   18.5670    1.4067   18.7823    1.4470    0.0000    0.0000
  1.980   19.0974    1.5181   19.0717    1.5140   18.1783    1.3506   18.1098    1.3235   18.7500    1.4607   18.9703    1.5034    0.0000    0.0000
  2.000   19.2943    1.5783   19.2682    1.5740   18.3542    1.4016   18.2825    1.3724   18.9397    1.5180   19.1653    1.5633    0.0000    0.0000
  2.020   19.4987    1.6424   19.4720    1.6378   18.5363    1.4557   18.4613    1.4242   19.1364    1.5788   19.3675    1.6269    0.0000    0.0000
  2.040   19.7108    1.7105   19.6835    1.7057   18.7252    1.5131   18.6465    1.4790   19.3406    1.6435   19.5775    1.6946    0.0000    0.0000
  2.060   19.9312    1.7832   19.9033    1.7781   18.9210    1.5740   18.8384    1.5372   19.5525    1.7125   19.7957    1.7670    0.0000    0.0000
  2.080   20.1603    1.8609   20.1317    1.8555   19.1242    1.6390   19.0375    1.5990   19.7728    1.7861   20.0224    1.8443    0.0000    0.0000
  2.100   20.3986    1.9441   20.3694    1.9384   19.3353    1.7083   19.2441    1.6648   20.0017    1.8649   20.2583    1.9271    0.0000    0.0000
  2.120   20.6466    2.0333   20.6167    2.0273   19.5545    1.7824   19.4586    1.7349   20.2400    1.9494   20.5039    2.0161    0.0001    0.0000
  2.140   20.9050    2.1293   20.8744    2.1229   19.7825    1.8618   19.6815    1.8099   20.4881    2.0401   20.7597    2.1119    0.0002    0.0000
  2.160   21.1744    2.2328   21.1430    2.2260   20.0198    1.9471   19.9133    1.8902   20.7466    2.1379   21.0264    2.2152    0.0003    0.0000
  2.180   21.4555    2.3446   21.4232    2.3374   20.2668    2.0389   20.1545    1.9763   21.0162    2.2436   21.3046    2.3271    0.0007    0.0000
  2.200   21.7490    2.4659   21.7158    2.4581   20.5242    2.1381   20.4057    2.0690   21.2975    2.3580   21.5951    2.4484    0.0013    0.0000
  2.220   22.0556    2.5976   22.0215    2.5894   20.7925    2.2454   20.6675    2.1689   21.5913    2.4823   21.8985    2.5805    0.0025    0.0000
  2.240   22.3762    2.7413   22.3411    2.7325   21.0725    2.3619   20.9404    2.2770   21.8983    2.6177   22.2157    2.7248    0.0045    0.0000
  2.260   22.7116    2.8985   22.6755    2.8890   21.3648    2.4888   21.2253    2.3941   22.2193    2.7657   22.5474    2.8828    0.0079    0.0000
  2.280   23.0627    3.0710   23.0255    3.0608   21.6702    2.6274   21.5228    2.5215   22.5551    2.9281   22.8944    3.0566    0.0136    0.0000
  2.300   23.4304    3.2610   23.3920    3.2500   21.9892    2.7795   21.8338    2.6605   22.9067    3.1068   23.2575    3.2484    0.0225    0.0000
  2.320   23.8154    3.4712   23.7758    3.4593   22.3226    2.9468   22.1590    2.8126   23.2746    3.3043   23.6373    3.4609    0.0364    0.0001
  2.340   24.2186    3.7045   24.1777    3.6916   22.6710    3.1317   22.4991    2.9797   23.6598    3.5235   24.0343    3.6972    0.0573    0.0001
  2.360   24.6406    3.9645   24.5983    3.9505   23.0349    3.3368   22.8552    3.1640   24.0627    3.7676   24.4488    3.9611    0.0879    0.0002
  2.380   25.0816    4.2554   25.0378    4.2402   23.4145    3.5651   23.2278    3.3680   24.4836    4.0408   24.8806    4.2567    0.1316    0.0003
  2.400   25.5415    4.5822   25.4963    4.5657   23.8098    3.8202   23.6176    3.5948   24.9225    4.3476   25.3289    4.5890    0.1928    0.0004
  2.420   26.0197    4.9505   25.9728    4.9325   24.2203    4.1061   24.0253    3.8479   25.3786    4.6935   25.7921    4.9634    0.2769    0.0006
  2.440   26.5144    5.3669   26.4659    5.3472   24.6447    4.4275   24.4508    4.1317   25.8502    5.0847   26.2673    5.3856    0.3903    0.0009
  2.460   27.0228    5.8385   26.9725    5.8170   25.0809    4.7891   24.8939    4.4513   26.3344    5.5284   26.7508    5.8616    0.5408    0.0013
  2.480   27.5406    6.3730   27.4884    6.3496   25.5260    5.1962   25.3535    4.8126   26.8264    6.0319   27.2373    6.3968    0.7375    0.0018
  2.500   28.0619    6.9787   28.0075    6.9532   25.9758    5.6539   25.8274    5.2224   27.3196    6.6029   27.7210    6.9967    0.9908    0.0026
  2.520   28.5788    7.6641   28.5218    7.6362   26.4251    6.1673   26.3117    5.6886   27.8051    7.2486   28.1956    7.6664    1.3112    0.0035
  2.540   29.0812    8.4382   29.0211    8.4075   26.8679    6.7416   26.8003    6.2196   28.2717    7.9752   28.6543    8.4122    1.7094    0.0048
  2.560   29.5558    9.3104   29.4919    9.2763   27.2966    7.3823   27.2840    6.8238   28.7069    8.7879   29.0883    9.2430    2.1936    0.0064
  2.580   29.9848   10.2907   29.9164   10.2519   27.7011    8.0953   27.7502    7.5088   29.0960    9.6919   29.4837   10.1697    2.7686    0.0084
  2.600   30.3429   11.3877   30.2697   11.3426   28.0677    8.8864   28.1822    8.2799   29.4204   10.6926   29.8185   11.2032    3.4331    0.0110
  2.620   30.5962   12.6050   30.5179   12.5517   28.3774    9.7588   28.5597    9.1380   29.6539   11.7943   30.0601   12.3493    4.1784    0.0140
  2.640   30.7011   13.9353   30.6176   13.8712   28.6060   10.7104   28.8606   10.0778   29.7597   12.9943   30.1669   13.6018    4.9869    0.0177
  2.660   30.6084   15.3525   30.5205   15.2740   28.7257   11.7290   29.0625   11.0870   29.6916   14.2732   30.0930   14.9362    5.8328    0.0220
  2.680   30.2735   16.8058   30.1832   16.7082   28.7104   12.7897   29.1464   12.1454   29.4037   15.5854   29.7981   16.3053    6.6833    0.0269
  2.700   29.6707   18.2197   29.5829   18.0977   28.5430   13.8544   29.0991   13.2263   28.8678   16.8568   29.2608   17.6412    7.5023    0.0324
  2.720   28.8087   19.5049   28.7321   19.3544   28.2231   14.8772   28.9167   14.2991   28.0925   17.9950   28.4899   18.8664    8.2536    0.0385
  2.740   27.7365   20.5794   27.6837   20.4003   27.7699   15.8139   28.6059   15.3336   27.1334   18.9133   27.5266   19.9121    8.9063    0.0450
  2.760   26.5346   21.3901   26.5189   21.1893   27.2198   16.6323   28.1816   16.3054   26.0856   19.5591   26.4346   20.7328    9.4377    0.0520
  2.780   25.2937   21.9246   25.3250   21.7157   26.6168   17.3184   27.6629   17.1974   25.0578   19.9320   25.2843   21.3108    9.8369    0.0592
  2.800   24.0918   22.2060   24.1728   22.0072   26.0042   17.8767   27.0688   17.9995   24.1401   20.0818   24.1407   21.6514   10.1049    0.0666
  2.820   22.9819   22.2771   23.1067   22.1058   25.4158   18.3265   26.4157   18.7055   23.3820   20.0862   23.0600   21.7742   10.2544    0.0742
  2.840   21.9930   22.1825   22.1487   22.0517   24.8725   18.6952   25.7180   19.3098   22.7896   20.0226   22.0898   21.7104   10.3072    0.0817
  2.860   21.1397   21.9599   21.3103   21.8754   24.3817   19.0115   24.9898   19.8049   22.3401   19.9480   21.2681   21.5017   10.2909    0.0893
  2.880   20.4323   21.6399   20.6024   21.6008   23.9390   19.2999   24.2498   20.1815   22.0006   19.8949   20.6187   21.2003   10.2355    0.0968
  2.900   19.8811   21.2519   20.0383   21.2521   23.5329   19.5774   23.5250   20.4328   21.7414   19.8771   20.1459   20.8619   10.1695    0.1043
  2.920   19.4948   20.8292   19.6309   20.8600   23.1489   19.8517   22.8498   20.5619   21.5397   19.8992   19.8340   20.5368   10.1173    0.1117
  2.940   19.2741   20.4110   19.3853   20.4628   22.7742   20.1228   22.2597   20.5875   21.3777   19.9624   19.6530   20.2616   10.0970    0.1191
  2.960   19.2071   20.0372   19.2932   20.1018   22.4001   20.3854   21.7808   20.5437   21.2399   20.0651   19.5670   20.0561   10.1190    0.1266
  2.980   19.2685   19.7416   19.3315   19.8127   22.0228   20.6320   21.4224   20.4730   21.1124   20.2026   19.5413   19.9243   10.1856    0.1341
  3.000   19.4240   19.5447   19.4666   19.6186   21.6423   20.8549   21.1755   20.4169   20.9840   20.3659   19.5478   19.8576   10.2920    0.1416
  3.020   19.6383   19.4519   19.6626   19.5268   21.2616   21.0468   21.0151   20.4065   20.8485   20.5423   19.5691   19.8390   10.4274    0.1493
  3.040   19.8826   19.4553   19.8895   19.5302   20.8866   21.2004   20.9080   20.4576   20.7066   20.7172   19.6008   19.8482   10.5780    0.1571
  3.060   20.1393   19.5403   20.1287   19.6140   20.5276   21.3098   20.8212   20.5683   20.5679   20.8777   19.6517   19.8696   10.7293    0.1650
  3.080   20.4029   19.6927   20.3736   19.7633   20.1985   21.3727   20.7304   20.7225   20.4489   21.0186   19.7392   19.8983   10.8694    0.1729
  3.100   20.6750   19.9053   20.6261   19.9693   19.9156   21.3921   20.6251   20.8961   20.3679   21.1450   19.8815   19.9434   10.9915    0.1810
  3.120   20.9585   20.1790   20.8901   20.2315   19.6946   21.3773   20.5104   21.0655   20.3387   21.2720   20.0893   20.0254   11.0947    0.1892
  3.140   21.2519   20.5207   21.1661   20.5563   19.5487   21.3431   20.4047   21.2156   20.3656   21.4204   20.3610   20.1703   11.1846    0.1974
  3.160   21.5470   20.9385   21.4483   20.9519   19.4870   21.3093   20.3325   21.3452   20.4432   21.6101   20.6822   20.4018   11.2711    0.2057
  3.180   21.8300   21.4373   21.7252   21.4249   19.5118   21.2992   20.3161   21.4687   20.5585   21.8559   21.0291   20.7353   11.3663    0.2140
  3.200   22.0843   22.0158   21.9818   21.9768   19.6172   21.3368   20.3670   21.6118   20.6949   22.1654   21.3737   21.1749   11.4818    0.2225
  3.220   22.2932   22.6660   22.2019   22.6035   19.7890   21.4426   20.4808   21.8038   20.8364   22.5387   21.6901   21.7131   11.6264    0.2310
  3.240   22.4444   23.3725   22.3711   23.2937   20.0068   21.6295   20.6383   22.0669   20.9699   22.9701   21.9591   22.3331   11.8054    0.2397
  3.260   22.5333   24.1142   22.4805   24.0293   20.2493   21.9006   20.8136   22.4084   21.0879   23.4488   22.1724   23.0132   12.0205    0.2485
  3.280   22.5688   24.8693   22.5328   24.7885   20.5001   22.2504   20.9851   22.8199   21.1919   23.9630   22.3336   23.7323   12.2727    0.2576
  3.300   22.5728   25.6247   22.5445   25.5544   20.7519   22.6698   21.1456   23.2858   21.2922   24.5054   22.4569   24.4767   12.5644    0.2668
  3.320   22.5733   26.3845   22.5412   26.3237   21.0059   23.1528   21.3022   23.7954   21.4044   25.0788   22.5622   25.2442   12.9024    0.2763
  3.340   22.5924   27.1709   22.5482   27.1111   21.2684   23.7009   21.4683   24.3513   21.5425   25.6977   22.6688   26.0468   13.2994    0.2860
  3.360   22.6375   28.0178   22.5804   27.9465   21.5455   24.3253   21.6529   24.9696   21.7140   26.3855   22.7885   26.9091   13.7742    0.2962
  3.380   22.6980   28.9614   22.6360   28.8683   21.8378   25.0460   21.8536   25.6741   21.9170   27.1730   22.9195   27.8642   14.3497    0.3067
  3.400   22.7476   30.0326   22.6941   29.9148   22.1344   25.8893   22.0543   26.4882   22.1372   28.0952   23.0428   28.9474   15.0498    0.3178
  3.420   22.7485   31.2518   22.7159   31.1154   22.4100   26.8812   22.2281   27.4279   22.3435   29.1871   23.1210   30.1876   15.8951    0.3295
  3.440   22.6557   32.6259   22.6504   32.4839   22.6244   28.0384   22.3429   28.4974   22.4861   30.4749   23.1023   31.5983   16.8994    0.3419
  3.460   22.4237   34.1473   22.4422   34.0140   22.7294   29.3616   22.3693   29.6897   22.5013   31.9666   22.9290   33.1719   18.0666    0.3552
  3.480   22.0103   35.7965   22.0408   35.6810   22.6775   30.8333   22.2847   30.9921   22.3203   33.6455   22.5478   34.8787   19.3899    0.3694
  3.500   21.3793   37.5449   21.4061   37.4466   22.4299   32.4212   22.0728   32.3921   21.8802   35.4697   21.9196   36.6725   20.8521    0.3847
  3.520   20.5005   39.3570   20.5115   39.2646   21.9608   34.0842   21.7187   33.8810   21.1344   37.3765   21.0235   38.4998   22.4275    0.4012
  3.540   19.3503   41.1914   19.3435   41.0871   21.2577   35.7793   21.2031   35.4524   20.0599   39.2904   19.8554   40.3082   24.0840    0.4189
  3.560   17.9127   43.0013   17.8984   42.8693   20.3194   37.4658   20.4999   37.0975   18.6604   41.1350   18.4228   42.0530   25.7851    0.4379
  3.580   16.1804   44.7364   16.1775   44.5700   19.1527   39.1093   19.5766   38.7983   16.9626   42.8446   16.7381   43.6978   27.4911    0.4581
  3.600   14.1559   46.3444   14.1839   46.1497   17.7675   40.6831   18.4002   40.5233   15.0072   44.3731   14.8133   45.2124   29.1595    0.4795
  3.620   11.8512   47.7741   11.9223   47.5673   16.1715   42.1671   16.9440   42.2278   12.8349   45.6957   12.6574   46.5681   30.7444    0.5021
  3.640    9.2856   48.9777    9.4010   48.7777   14.3653   43.5425   15.1925   43.8580   10.4739   46.8014   10.2782   47.7321   32.1959    0.5258
  3.660    6.4822   49.9090    6.6331   49.7308   12.3439   44.7836   13.1417   45.3553    7.9354   47.6775    7.6868   48.6641   33.4609    0.5504
  3.680    3.4690   50.5191    3.6421   50.3690   10.1033   45.8516   10.7992   46.6569    5.2224   48.2938    4.9054   49.3179   34.4839    0.5757
  3.700    0.2857   50.7541    0.4691   50.6300    7.6514   46.6965    8.1868   47.6975    2.3491   48.5988    1.9715   49.6483   35.2108    0.6016
  3.720   -3.0092   50.5613   -2.8213   50.4562    5.0129   47.2647    5.3430   48.4129   -0.6430   48.5303   -1.0650   49.6195   35.5931    0.6278
  3.740   -6.3374   49.8986   -6.1432   49.8055    2.2284   47.5062    2.3233   48.7458   -3.6798   48.0346   -4.1495   49.2070   35.5932    0.6539
  3.760   -9.6040   48.7420   -9.3969   48.6592   -0.6470   47.3772   -0.8024   48.6494   -6.6613   47.0838   -7.2266   48.3908   35.1899    0.6798
  3.780  -12.7027   47.0910  -12.4759   47.0244   -3.5433   46.8432   -3.9504   48.0892   -9.4756   45.6865  -10.2329   47.1509   34.3828    0.7050
  3.800  -15.5211   44.9741  -15.2735   44.9357   -6.3737   45.8863   -7.0223   47.0487  -12.0162   43.8912  -13.0860   45.4726   33.1944    0.7294
  3.820  -17.9504   42.4550  -17.6898   42.4573   -9.0410   44.5157   -9.9078   45.5387  -14.1994   41.7805  -15.6811   43.3647   31.6702    0.7527
  3.840  -19.9002   39.6336  -19.6417   39.6836  -11.4501   42.7742  -12.4961   43.6063  -15.9769   39.4573  -17.9047   40.8774   29.8760    0.7747
  3.860  -21.3151   36.6387  -21.0767   36.7341  -13.5254   40.7347  -14.6946   41.3370  -17.3380   37.0264  -19.6600   38.1085   27.8928    0.7952
  3.880  -22.1870   33.6109  -21.9829   33.7407  -15.2212   38.4874  -16.4463   38.8424  -18.3036   34.5797  -20.8910   35.1903   25.8103    0.8142
  3.900  -22.5555   30.6804  -22.3924   30.8284  -16.5230   36.1240  -17.7369   36.2394  -18.9138   32.1876  -21.5955   32.2651   23.7197    0.8316
  3.920  -22.4965   27.9480  -22.3728   28.0985  -17.4402   33.7262  -18.5878   33.6314  -19.2155   29.8985  -21.8206   29.4589   21.7070    0.8475
  3.940  -22.1039   25.4760  -22.0117   25.6175  -17.9968   31.3630  -19.0420   31.1001  -19.2542   27.7444  -21.6464   26.8645   19.8477    0.8621
  3.960  -21.4718   23.2903  -21.4009   23.4171  -18.2260   29.0917  -19.1524   28.7042  -19.0722   25.7473  -21.1662   24.5354   18.2032    0.8755
  3.980  -20.6823   21.3884  -20.6231   21.5001  -18.1680   26.9585  -18.9741   26.4842  -18.7096   23.9215  -20.4700   22.4905   16.8195    0.8879
  4.000  -19.7992   19.7501  -19.7449   19.8499  -17.8671   24.9983  -18.5604   24.4659  -18.2042   22.2748  -19.6334   20.7241   15.7269    0.8994
  4.020  -18.8680   18.3479  -18.8153   18.4401  -17.3697   23.2356  -17.9612   22.6647  -17.5905   20.8085  -18.7147   19.2169   14.9415    0.9104
  4.040  -17.9193   17.1545  -17.8674   17.2428  -16.7226   21.6856  -17.2233   21.0886  -16.8991   19.5205  -17.7563   17.9453   14.4664    0.9210
  4.060  -16.9743   16.1467  -16.9241   16.2334  -15.9721   20.3547  -16.3915   19.7387  -16.1573   18.4063  -16.7902   16.8863   14.2929    0.9315
  4.080  -16.0506   15.3050  -16.0026   15.3908  -15.1637   19.2404  -15.5086   18.6093  -15.3916   17.4595  -15.8429   16.0181   14.4018    0.9421
  4.100  -15.1641   14.6110  -15.1187   14.6960  -14.3399   18.3304  -14.6141   17.6860  -14.6281   16.6704  -14.9376   15.3180   14.7642    0.9530
  4.120  -14.3294   14.0444  -14.2863   14.1290  -13.5366   17.6029  -13.7410   16.9469  -13.8912   16.0237  -14.0932   14.7598   15.3427    0.9643
  4.140  -13.5570   13.5825  -13.5160   13.6675  -12.7794   17.0293  -12.9128   16.3651  -13.2011   15.4981  -13.3218   14.3142   16.0930    0.9761
  4.160  -12.8511   13.2012  -12.8128   13.2873  -12.0827   16.5803  -12.1436   15.9132  -12.5706   15.0682  -12.6254   13.9521   16.9660    0.9886
  4.180  -12.2087   12.8779  -12.1740   12.9655  -11.4515   16.2295  -11.4397   15.5665  -12.0034   14.7078  -11.9975   13.6494   17.9100    1.0017
  4.200  -11.6208   12.5953  -11.5909   12.6837  -10.8858   15.9567  -10.8026   15.3045  -11.4947   14.3938  -11.4270   13.3907   18.8736    1.0156
  4.220  -11.0760   12.3430  -11.0512   12.4309  -10.3847   15.7461  -10.2322   15.1106  -11.0342   14.1096  -10.9038   13.1688   19.8082    1.0302
  4.240  -10.5639   12.1171  -10.5434   12.2029   -9.9479   15.5837   -9.7278   14.9701  -10.6094   13.8454  -10.4220   12.9811   20.6711    1.0453
  4.260  -10.0779   11.9177  -10.0598   12.0006   -9.5746   15.4548   -9.2878   14.8686  -10.2091   13.5977   -9.9813   12.8256   21.4278    1.0611
  4.280   -9.6155   11.7450   -9.5977   11.8260   -9.2609   15.3435   -8.9081   14.7914   -9.8250   13.3664   -9.5836   12.6967   22.0547    1.0773
  4.300   -9.1760   11.5982   -9.1574   11.6792   -8.9982   15.2343   -8.5806   14.7251   -9.4512   13.1524   -9.2302   12.5848   22.5411    1.0939
  4.320   -8.7583   11.4745   -8.7394   11.5579   -8.7716   15.1150   -8.2927   14.6594   -9.0826   12.9573   -8.9175   12.4778   22.8912    1.1107
  4.340   -8.3597   11.3716   -8.3422   11.4585   -8.5616   14.9806   -8.0287   14.5901   -8.7141   12.7840   -8.6357   12.3648   23.1242    1.1277
  4.360   -7.9768   11.2891   -7.9621   11.3793   -8.3479   14.8363   -7.7731   14.5212   -8.3411   12.6388   -8.3702   12.2409   23.2730    1.1448
  4.380   -7.6070   11.2288   -7.5955   11.3216   -8.1152   14.6971   -7.5143   14.4644   -7.9624   12.5311   -8.1062   12.1094   23.3806    1.1620
  4.400   -7.2503   11.1938   -7.2416   11.2892   -7.8580   14.5856   -7.2496   14.4369   -7.5824   12.4723   -7.8338   11.9802   23.4952    1.1793
  4.420   -6.9096   11.1865   -6.9033   11.2858   -7.5839   14.5249   -6.9869   14.4556   -7.2118   12.4714   -7.5503   11.8658   23.6635    1.1966
  4.440   -6.5894   11.2070   -6.5864   11.3120   -7.3124   14.5322   -6.7439   14.5314   -6.8656   12.5330   -7.2602   11.7767   23.9240    1.2142
  4.460   -6.2935   11.2524   -6.2964   11.3648   -7.0700   14.6139   -6.5424   14.6647   -6.5606   12.6549   -6.9715   11.7177   24.3010    1.2321
  4.480   -6.0235   11.3185   -6.0361   11.4386   -6.8847   14.7640   -6.4034   14.8456   -6.3122   12.8299   -6.6919   11.6888   24.8012    1.2503
  4.500   -5.7790   11.4023   -5.8055   11.5282   -6.7802   14.9655   -6.3420   15.0563   -6.1338   13.0468   -6.4260   11.6871   25.4127    1.2690
  4.520   -5.5593   11.5030   -5.6034   11.6306   -6.7731   15.1935   -6.3664   15.2745   -6.0369   13.2907   -6.1759   11.7100   26.1071    1.2882
  4.540   -5.3660   11.6209   -5.4292   11.7439   -6.8714   15.4176   -6.4771   15.4759   -6.0312   13.5425   -5.9429   11.7556   26.8443    1.3079
  4.560   -5.2033   11.7548   -5.2839   11.8659   -7.0725   15.6042   -6.6671   15.6359   -6.1208   13.7767   -5.7284   11.8231   27.5792    1.3282
  4.580   -5.0759   11.8994   -5.1682   11.9922   -7.3605   15.7204   -6.9207   15.7317   -6.3006   13.9640   -5.5340   11.9109   28.2691    1.3490
  4.600   -4.9853   12.0462   -5.0800   12.1177   -7.7069   15.7405   -7.2131   15.7468   -6.5522   14.0763   -5.3607   12.0172   28.8809    1.3702
  4.620   -4.9279   12.1863   -5.0145   12.2387   -8.0737   15.6520   -7.5135   15.6752   -6.8459   14.0942   -5.2082   12.1410   29.3954    1.3918
  4.640   -4.8955   12.3141   -4.9652   12.3553   -8.4217   15.4591   -7.7913   15.5242   -7.1460   14.0128   -5.0762   12.2836   29.8098    1.4137
  4.660   -4.8793   12.4299   -4.9279   12.4722   -8.7179   15.1809   -8.0221   15.3121   -7.4194   13.8422   -4.9671   12.4486   30.1365    1.4359
  4.680   -4.8732   12.5385   -4.9029   12.5957   -8.9412   14.8464   -8.1908   15.0644   -7.6419   13.6033   -4.8874   12.6390   30.3985    1.4582
  4.700   -4.8755   12.6466   -4.8952   12.7310   -9.0844   14.4879   -8.2932   14.8094   -7.8017   13.3221   -4.8477   12.8544   30.6234    1.4807
  4.720   -4.8891   12.7599   -4.9133   12.8795   -9.1527   14.1351   -8.3360   14.5750   -7.8980   13.0230   -4.8596   13.0885   30.8355    1.5034
  4.740   -4.9203   12.8816   -4.9666   13.0381   -9.1612   13.8112   -8.3372   14.3842   -7.9383   12.7247   -4.9322   13.3293   31.0505    1.5262
  4.760   -4.9772   13.0106   -5.0641   13.1983   -9.1310   13.5296   -8.3236   14.2501   -7.9335   12.4382   -5.0699   13.5609   31.2713    1.5492
  4.780   -5.0672   13.1408   -5.2114   13.3464   -9.0840   13.2939   -8.3252   14.1717   -7.8933   12.1677   -5.2716   13.7663   31.4881    1.5723
  4.800   -5.1948   13.2617   -5.4079   13.4648   -9.0398   13.0983   -8.3682   14.1336   -7.8239   11.9131   -5.5310   13.9283   31.6819    1.5956
  4.820   -5.3587   13.3600   -5.6437   13.5352   -9.0115   12.9303   -8.4671   14.1098   -7.7268   11.6744   -5.8361   14.0312   31.8312    1.6190
  4.840   -5.5509   13.4233   -5.9000   13.5445   -9.0036   12.7739   -8.6214   14.0719   -7.6006   11.4536   -6.1685   14.0626   31.9200    1.6425
  4.860   -5.7573   13.4434   -6.1528   13.4896   -9.0118   12.6153   -8.8174   13.9968   -7.4439   11.2566   -6.5050   14.0172   31.9448    1.6659
  4.880   -5.9605   13.4193   -6.3788   13.3784   -9.0259   12.4464   -9.0339   13.8722   -7.2570   11.0914   -6.8206   13.8997   31.9193    1.6894
  4.900   -6.1437   13.3589   -6.5608   13.2274   -9.0339   12.2671   -9.2486   13.6973   -7.0430   10.9681   -7.0943   13.7242   31.8751    1.7128
  4.920   -6.2956   13.2774   -6.6892   13.0582   -9.0269   12.0836   -9.4434   13.4809   -6.8081   10.8975   -7.3126   13.5117   31.8580    1.7362
  4.940   -6.4132   13.1937   -6.7638   12.8942   -9.0008   11.9057   -9.6078   13.2371   -6.5634   10.8908   -7.4713   13.2854   31.9203    1.7597
  4.960   -6.5030   13.1260   -6.7931   12.7576   -8.9570   11.7444   -9.7388   12.9815   -6.3253   10.9568   -7.5748   13.0675   32.1108    1.7833
  4.980   -6.5789   13.0876   -6.7942   12.6649   -8.9022   11.6089   -9.8412   12.7275   -6.1157   11.0994   -7.6344   12.8762   32.4643    1.8072
  5.000   -6.6592   13.0842   -6.7891   12.6247   -8.8470   11.5048   -9.9242   12.4827   -5.9591   11.3142   -7.6665   12.7239   32.9940    1.8314
  5.020   -6.7629   13.1128   -6.8011   12.6359   -8.8041   11.4329   -9.9975   12.2482   -5.8791   11.5877   -7.6904   12.6167   33.6855    1.8562
  5.040   -6.9063   13.1634   -6.8502   12.6896   -8.7856   11.3888  -10.0679   12.0206   -5.8947   11.8984   -7.7259   12.5537   34.4978    1.8815
  5.060   -7.1003   13.2202   -6.9525   12.7710   -8.8015   11.3638  -10.1373   11.7951   -6.0178   12.2186   -7.7919   12.5271   35.3666    1.9075
  5.080   -7.3500   13.2643   -7.1185   12.8610   -8.8585   11.3459  -10.2056   11.5689   -6.2514   12.5169   -7.9039   12.5224   36.2127    1.9341
  5.100   -7.6534   13.2756   -7.3530   12.9371   -8.9592   11.3212  -10.2721   11.3410   -6.5884   12.7608   -8.0711   12.5193   36.9521    1.9613
  5.120   -8.0012   13.2351   -7.6523   12.9747   -9.1014   11.2748  -10.3374   11.1108   -7.0106   12.9204   -8.2944   12.4944   37.5066    1.9889
  5.140   -8.3779   13.1280   -8.0034   12.9511   -9.2774   11.1928  -10.4027   10.8769   -7.4900   12.9734   -8.5649   12.4255   37.8136    2.0167
  5.160   -8.7636   12.9458   -8.3854   12.8497   -9.4750   11.0645  -10.4690   10.6358   -7.9927   12.9084   -8.8659   12.2953   37.8333    2.0445
  5.180   -9.1372   12.6861   -8.7728   12.6630   -9.6789   10.8842  -10.5351   10.3831   -8.4837   12.7258   -9.1755   12.0939   37.5525    2.0721
  5.200   -9.4773   12.3533   -9.1398   12.3920   -9.8726   10.6512  -10.5971   10.1140   -8.9310   12.4373   -9.4700   11.8197   36.9854    2.0992
  5.220   -9.7647   11.9579   -9.4627   12.0461  -10.0400   10.3702  -10.6478    9.8259   -9.3092   12.0632   -9.7260   11.4792   36.1703    2.1258
  5.240   -9.9838   11.5164   -9.7220   11.6417  -10.1673   10.0517  -10.6784    9.5198   -9.6013   11.6299   -9.9234   11.0872   35.1643    2.1517
  5.260  -10.1254   11.0501   -9.9052   11.2004  -10.2453    9.7106  -10.6810    9.2015   -9.8010   11.1665  -10.0494   10.6653   34.0355    2.1767
  5.280  -10.1888   10.5817  -10.0082   10.7466  -10.2721    9.3637  -10.6512    8.8801   -9.9120   10.7000  -10.1005   10.2383   32.8552    2.2008
  5.300  -10.1808   10.1312  -10.0360   10.3030  -10.2519    9.0263  -10.5895    8.5657   -9.9456   10.2516  -10.0835    9.8287   31.6901    2.2241
  5.320  -10.1142    9.7134  -10.0003    9.8867  -10.1937    8.7086  -10.5005    8.2658   -9.9169    9.8351  -10.0120    9.4526   30.5958    2.2466
  5.340  -10.0029    9.3363   -9.9157    9.5082  -10.1076    8.4161  -10.3900    7.9844   -9.8411    9.4578   -9.9022    9.1187   29.6134    2.2684
  5.360   -9.8600    9.0032   -9.7962    9.1719  -10.0023    8.1501  -10.2628    7.7230   -9.7312    9.1220   -9.7693    8.8290   28.7672    2.2895
  5.380   -9.6964    8.7144   -9.6533    8.8783   -9.8845    7.9101  -10.1227    7.4825   -9.5978    8.8278   -9.6257    8.5817   28.0660    2.3102
  5.400   -9.5215    8.4691   -9.4967    8.6267   -9.7598    7.6954   -9.9731    7.2646   -9.4495    8.5741   -9.4816    8.3728   27.5059    2.3304
  5.420   -9.3443    8.2652   -9.3346    8.4151   -9.6334    7.5042   -9.8191    7.0700   -9.2938    8.3593   -9.3451    8.1963   27.0736    2.3503
  5.440   -9.1728    8.0982   -9.1750    8.2405   -9.5101    7.3335   -9.6665    6.8972   -9.1372    8.1810   -9.2223    8.0445   26.7511    2.3699
  5.460   -9.0133    7.9615   -9.0242    8.0975   -9.3931    7.1788   -9.5195    6.7420   -8.9859    8.0362   -9.1154    7.9082   26.5194    2.3894
  5.480   -8.8681    7.8475   -8.8862    7.9799   -9.2832    7.0350   -9.3790    6.5988   -8.8448    7.9208   -9.0227    7.7787   26.3620    2.4088
  5.500   -8.7362    7.7497   -8.7617    7.8815   -9.1789    6.8982   -9.2427    6.4636   -8.7174    7.8300   -8.9387    7.6500   26.2664    2.4281
  5.520   -8.6144    7.6652   -8.6497    7.7983   -9.0773    6.7660   -9.1069    6.3357   -8.6057    7.7596   -8.8563    7.5205   26.2249    2.4474
  5.540   -8.5004    7.5939   -8.5487    7.7286   -8.9754    6.6389   -8.9690    6.2175   -8.5110    7.7056   -8.7697    7.3924   26.2343    2.4667
  5.560   -8.3941    7.5376   -8.4584    7.6724   -8.8714    6.5186   -8.8294    6.1129   -8.4340    7.6645   -8.6754    7.2708   26.2944    2.4860
  5.580   -8.2977    7.4980   -8.3800    7.6300   -8.7649    6.4079   -8.6916    6.0247   -8.3748    7.6333   -8.5735    7.1617   26.4060    2.5054
  5.600   -8.2147    7.4749   -8.3158    7.6010   -8.6577    6.3098   -8.5608    5.9536   -8.3331    7.6097   -8.4668    7.0705   26.5691    2.5249
  5.620   -8.1492    7.4671   -8.2690    7.5846   -8.5530    6.2260   -8.4420    5.8970   -8.3089    7.5924   -8.3604    7.0010   26.7812    2.5446
  5.640   -8.1045    7.4720   -8.2430    7.5786   -8.4548    6.1570   -8.3384    5.8498   -8.3033    7.5812   -8.2609    6.9554   27.0359    2.5645
  5.660   -8.0841    7.4865   -8.2420    7.5800   -8.3680    6.1014   -8.2500    5.8063   -8.3197    7.5754   -8.1762    6.9334   27.3228    2.5846
  5.680   -8.0912    7.5065   -8.2703    7.5834   -8.2967    6.0558   -8.1741    5.7623   -8.3634    7.5719   -8.1148    6.9314   27.6276    2.6049
  5.700   -8.1297    7.5262   -8.3310    7.5802   -8.2436    6.0146   -8.1074    5.7158   -8.4401    7.5632   -8.0842    6.9423   27.9336    2.6254
  5.720   -8.2018    7.5370   -8.4240    7.5595   -8.2092    5.9713   -8.0470    5.6668   -8.5522    7.5372   -8.0891    6.9552   28.2236    2.6461
  5.740   -8.3066    7.5279   -8.5437    7.5091   -8.1909    5.9191   -7.9910    5.6158   -8.6958    7.4794   -8.1290    6.9571   28.4819    2.6671
  5.760   -8.4377    7.4877   -8.6786    7.4199   -8.1831    5.8531   -7.9384    5.5636   -8.8596    7.3769   -8.1977    6.9358   28.6965    2.6882
  5.780   -8.5840    7.4085   -8.8139    7.2889   -8.1784    5.7714   -7.8882    5.5111   -9.0263    7.2233   -8.2838    6.8830   28.8604    2.7094
  5.800   -8.7319    7.2876   -8.9352    7.1199   -8.1697    5.6757   -7.8404    5.4591   -9.1777    7.0204   -8.3741    6.7969   28.9723    2.7307
  5.820   -8.8682    7.1279   -9.0323    6.9218   -8.1518    5.5707   -7.7953    5.4084   -9.2987    6.7772   -8.4564    6.6811   29.0360    2.7520
  5.840   -8.9827    6.9365   -9.0999    6.7053   -8.1223    5.4627   -7.7533    5.3592   -9.3798    6.5071   -8.5228    6.5436   29.0583    2.7734
  5.860   -9.0687    6.7230   -9.1370    6.4807   -8.0820    5.3579   -7.7148    5.3114   -9.4178    6.2244   -8.5697    6.3935   29.0475    2.7947
  5.880   -9.1230    6.4980   -9.1455    6.2567   -8.0346    5.2611   -7.6796    5.2649   -9.4146    5.9425   -8.5975    6.2393   29.0097    2.8160
  5.900   -9.1466    6.2720   -9.1292    6.0401   -7.9850    5.1747   -7.6477    5.2206   -9.3759    5.6719   -8.6095    6.0876   28.9476    2.8373
  5.920   -9.1442    6.0542   -9.0929    5.8364   -7.9387    5.0988   -7.6197    5.1797   -9.3100    5.4192   -8.6105    5.9429   28.8582    2.8585
  5.940   -9.1234    5.8508   -9.0430    5.6492   -7.9008    5.0312   -7.5980    5.1438   -9.2260    5.1871   -8.6065    5.8073   28.7334    2.8788
  5.960   -9.0935    5.6639   -8.9866    5.4801   -7.8750    4.9675   -7.5866    5.1131   -9.1315    4.9746   -8.6037    5.6800   28.5611    2.9033
  5.980   -9.0631    5.4909   -8.9310    5.3277   -7.8633    4.9016   -7.5909    5.0848   -9.0319    4.7779   -8.6075    5.5576   28.3281    2.9111
