# RPA macroscopic dielectric function without local fields
# Tolerance =  0.0200 0.0200
# npweps  = 59
# npwwfn  = 137
# nbands  = 6
# loband  = 2
# nkibz   = 216
# nkbz    = 216
# Lorentzian broadening =  0.1500 [eV]
# List of q-points for the optical limit:
# q =  0.938821, 0.000000, 0.000000, [Reduced coords] 
# q =  0.000000, 0.938821, 0.000000, [Reduced coords] 
# q =  0.000000, 0.000000, 0.938821, [Reduced coords] 
# q =  0.000000, 0.813043, 0.813043, [Reduced coords] 
# q =  0.813043, 0.000000, 0.813043, [Reduced coords] 
# q =  0.813043, 0.813043, 0.000000, [Reduced coords] 
# omega [eV]    RE(eps(q=1)) IM(eps(q=1) RE(eps(q=2) ) ... DOS   IDOS
  0.000   14.3661    0.0000   14.3300    0.0000   13.2018    0.0000   13.1084    0.0000   13.9569    0.0000   14.1764    0.0000    0.0000    0.0000
  0.020   14.3666    0.0067   14.3304    0.0066   13.2022    0.0057   13.1088    0.0056   13.9573    0.0064   14.1768    0.0065    0.0000    0.0000
  0.040   14.3679    0.0133   14.3317    0.0133   13.2033    0.0114   13.1099    0.0111   13.9585    0.0127   14.1781    0.0131    0.0000    0.0000
  0.060   14.3701    0.0200   14.3339    0.0199   13.2052    0.0171   13.1117    0.0167   13.9606    0.0191   14.1803    0.0196    0.0000    0.0000
  0.080   14.3732    0.0267   14.3370    0.0266   13.2078    0.0228   13.1143    0.0223   13.9636    0.0255   14.1833    0.0262    0.0000    0.0000
  0.100   14.3771    0.0334   14.3410    0.0332   13.2112    0.0286   13.1176    0.0279   13.9674    0.0319   14.1872    0.0327    0.0000    0.0000
  0.120   14.3820    0.0401   14.3458    0.0399   13.2154    0.0343   13.1217    0.0335   13.9720    0.0383   14.1920    0.0393    0.0000    0.0000
  0.140   14.3877    0.0468   14.3515    0.0466   13.2203    0.0401   13.1265    0.0391   13.9775    0.0447   14.1976    0.0459    0.0000    0.0000
  0.160   14.3944    0.0535   14.3581    0.0533   13.2260    0.0459   13.1320    0.0447   13.9838    0.0511   14.2041    0.0525    0.0000    0.0000
  0.180   14.4019    0.0603   14.3656    0.0601   13.2324    0.0516   13.1383    0.0504   13.9910    0.0576   14.2115    0.0592    0.0000    0.0000
  0.200   14.4103    0.0671   14.3740    0.0668   13.2397    0.0575   13.1454    0.0561   13.9991    0.0641   14.2198    0.0658    0.0000    0.0000
  0.220   14.4196    0.0739   14.3833    0.0737   13.2476    0.0633   13.1531    0.0617   14.0080    0.0706   14.2289    0.0725    0.0000    0.0000
  0.240   14.4299    0.0808   14.3935    0.0805   13.2564    0.0692   13.1617    0.0675   14.0177    0.0771   14.2389    0.0793    0.0000    0.0000
  0.260   14.4410    0.0877   14.4046    0.0874   13.2659    0.0751   13.1710    0.0732   14.0283    0.0837   14.2499    0.0860    0.0000    0.0000
  0.280   14.4530    0.0946   14.4166    0.0943   13.2763    0.0810   13.1811    0.0790   14.0399    0.0903   14.2617    0.0928    0.0000    0.0000
  0.300   14.4660    0.1016   14.4295    0.1012   13.2874    0.0870   13.1919    0.0848   14.0522    0.0970   14.2744    0.0997    0.0000    0.0000
  0.320   14.4799    0.1086   14.4433    0.1082   13.2993    0.0930   13.2035    0.0907   14.0655    0.1037   14.2880    0.1066    0.0000    0.0000
  0.340   14.4947    0.1157   14.4581    0.1153   13.3120    0.0990   13.2159    0.0965   14.0797    0.1105   14.3026    0.1135    0.0000    0.0000
  0.360   14.5105    0.1229   14.4738    0.1224   13.3254    0.1051   13.2290    0.1025   14.0947    0.1173   14.3181    0.1205    0.0000    0.0000
  0.380   14.5272    0.1300   14.4905    0.1295   13.3398    0.1112   13.2430    0.1084   14.1106    0.1241   14.3344    0.1276    0.0000    0.0000
  0.400   14.5449    0.1373   14.5081    0.1368   13.3549    0.1174   13.2577    0.1145   14.1275    0.1310   14.3518    0.1347    0.0000    0.0000
  0.420   14.5635    0.1446   14.5266    0.1440   13.3708    0.1236   13.2733    0.1205   14.1453    0.1380   14.3700    0.1419    0.0000    0.0000
  0.440   14.5831    0.1520   14.5461    0.1514   13.3876    0.1299   13.2896    0.1266   14.1640    0.1450   14.3893    0.1491    0.0000    0.0000
  0.460   14.6037    0.1594   14.5666    0.1588   13.4052    0.1363   13.3068    0.1328   14.1836    0.1522   14.4095    0.1564    0.0000    0.0000
  0.480   14.6252    0.1670   14.5881    0.1663   13.4236    0.1427   13.3247    0.1391   14.2042    0.1593   14.4306    0.1638    0.0000    0.0000
  0.500   14.6478    0.1746   14.6106    0.1739   13.4429    0.1491   13.3435    0.1454   14.2257    0.1666   14.4527    0.1713    0.0000    0.0000
  0.520   14.6714    0.1823   14.6341    0.1816   13.4630    0.1557   13.3632    0.1517   14.2482    0.1739   14.4759    0.1788    0.0000    0.0000
  0.540   14.6960    0.1901   14.6586    0.1893   13.4840    0.1623   13.3837    0.1581   14.2717    0.1813   14.5000    0.1865    0.0000    0.0000
  0.560   14.7216    0.1980   14.6841    0.1972   13.5059    0.1690   13.4050    0.1646   14.2962    0.1889   14.5251    0.1942    0.0000    0.0000
  0.580   14.7483    0.2059   14.7106    0.2051   13.5287    0.1757   13.4272    0.1712   14.3216    0.1965   14.5513    0.2020    0.0000    0.0000
  0.600   14.7760    0.2140   14.7383    0.2132   13.5524    0.1826   13.4503    0.1779   14.3481    0.2042   14.5785    0.2099    0.0000    0.0000
  0.620   14.8048    0.2222   14.7670    0.2213   13.5770    0.1895   13.4742    0.1846   14.3755    0.2120   14.6068    0.2180    0.0000    0.0000
  0.640   14.8347    0.2305   14.7967    0.2296   13.6025    0.1966   13.4991    0.1914   14.4041    0.2199   14.6361    0.2261    0.0000    0.0000
  0.660   14.8657    0.2389   14.8276    0.2380   13.6289    0.2037   13.5248    0.1983   14.4336    0.2279   14.6665    0.2344    0.0000    0.0000
  0.680   14.8978    0.2475   14.8596    0.2465   13.6563    0.2109   13.5515    0.2053   14.4642    0.2360   14.6980    0.2428    0.0000    0.0000
  0.700   14.9310    0.2561   14.8927    0.2551   13.6846    0.2182   13.5791    0.2124   14.4959    0.2443   14.7306    0.2513    0.0000    0.0000
  0.720   14.9654    0.2650   14.9270    0.2639   13.7140    0.2256   13.6076    0.2196   14.5287    0.2526   14.7643    0.2599    0.0000    0.0000
  0.740   15.0010    0.2739   14.9624    0.2728   13.7443    0.2332   13.6371    0.2269   14.5627    0.2612   14.7992    0.2687    0.0000    0.0000
  0.760   15.0377    0.2830   14.9990    0.2819   13.7756    0.2408   13.6676    0.2343   14.5977    0.2698   14.8352    0.2776    0.0000    0.0000
  0.780   15.0757    0.2922   15.0368    0.2911   13.8079    0.2486   13.6990    0.2419   14.6339    0.2786   14.8725    0.2867    0.0000    0.0000
  0.800   15.1149    0.3016   15.0758    0.3004   13.8412    0.2565   13.7315    0.2495   14.6712    0.2876   14.9109    0.2959    0.0000    0.0000
  0.820   15.1553    0.3112   15.1161    0.3100   13.8756    0.2645   13.7650    0.2573   14.7098    0.2967   14.9506    0.3053    0.0000    0.0000
  0.840   15.1970    0.3210   15.1576    0.3197   13.9111    0.2727   13.7995    0.2652   14.7495    0.3059   14.9915    0.3148    0.0000    0.0000
  0.860   15.2400    0.3309   15.2004    0.3296   13.9476    0.2810   13.8350    0.2733   14.7905    0.3154   15.0336    0.3246    0.0000    0.0000
  0.880   15.2843    0.3410   15.2445    0.3396   13.9853    0.2895   13.8716    0.2814   14.8327    0.3250   15.0771    0.3345    0.0000    0.0000
  0.900   15.3299    0.3513   15.2900    0.3499   14.0240    0.2981   13.9093    0.2898   14.8763    0.3348   15.1219    0.3446    0.0000    0.0000
  0.920   15.3770    0.3619   15.3368    0.3604   14.0639    0.3069   13.9481    0.2983   14.9211    0.3448   15.1680    0.3549    0.0000    0.0000
  0.940   15.4254    0.3726   15.3850    0.3711   14.1050    0.3159   13.9881    0.3069   14.9672    0.3550   15.2155    0.3655    0.0000    0.0000
  0.960   15.4752    0.3836   15.4347    0.3820   14.1473    0.3250   14.0291    0.3157   15.0147    0.3654   15.2643    0.3762    0.0000    0.0000
  0.980   15.5265    0.3947   15.4857    0.3931   14.1908    0.3343   14.0714    0.3247   15.0635    0.3760   15.3146    0.3872    0.0000    0.0000
  1.000   15.5792    0.4062   15.5383    0.4045   14.2355    0.3438   14.1148    0.3339   15.1138    0.3869   15.3664    0.3984    0.0000    0.0000
  1.020   15.6335    0.4179   15.5924    0.4162   14.2815    0.3535   14.1595    0.3432   15.1655    0.3980   15.4196    0.4099    0.0000    0.0000
  1.040   15.6893    0.4298   15.6480    0.4281   14.3287    0.3634   14.2054    0.3527   15.2187    0.4093   15.4744    0.4216    0.0000    0.0000
  1.060   15.7468    0.4421   15.7051    0.4403   14.3773    0.3736   14.2525    0.3625   15.2733    0.4209   15.5307    0.4336    0.0000    0.0000
  1.080   15.8058    0.4546   15.7639    0.4527   14.4272    0.3839   14.3010    0.3725   15.3295    0.4328   15.5886    0.4459    0.0000    0.0000
  1.100   15.8665    0.4674   15.8244    0.4655   14.4785    0.3945   14.3507    0.3826   15.3873    0.4449   15.6481    0.4585    0.0000    0.0000
  1.120   15.9289    0.4806   15.8865    0.4786   14.5312    0.4054   14.4019    0.3931   15.4467    0.4574   15.7093    0.4714    0.0000    0.0000
  1.140   15.9930    0.4940   15.9503    0.4920   14.5853    0.4165   14.4544    0.4037   15.5078    0.4702   15.7722    0.4846    0.0000    0.0000
  1.160   16.0589    0.5079   16.0160    0.5058   14.6409    0.4278   14.5083    0.4146   15.5705    0.4833   15.8368    0.4981    0.0000    0.0000
  1.180   16.1266    0.5220   16.0834    0.5199   14.6980    0.4395   14.5636    0.4258   15.6349    0.4967   15.9032    0.5120    0.0000    0.0000
  1.200   16.1962    0.5366   16.1527    0.5344   14.7566    0.4514   14.6204    0.4372   15.7012    0.5105   15.9715    0.5263    0.0000    0.0000
  1.220   16.2677    0.5515   16.2239    0.5492   14.8168    0.4637   14.6788    0.4489   15.7692    0.5246   16.0417    0.5410    0.0000    0.0000
  1.240   16.3412    0.5669   16.2971    0.5645   14.8787    0.4762   14.7387    0.4610   15.8391    0.5392   16.1137    0.5560    0.0000    0.0000
  1.260   16.4167    0.5827   16.3723    0.5803   14.9422    0.4891   14.8002    0.4733   15.9110    0.5541   16.1878    0.5715    0.0000    0.0000
  1.280   16.4943    0.5989   16.4496    0.5964   15.0074    0.5024   14.8633    0.4859   15.9848    0.5695   16.2639    0.5875    0.0000    0.0000
  1.300   16.5741    0.6157   16.5290    0.6131   15.0743    0.5160   14.9280    0.4989   16.0606    0.5853   16.3421    0.6039    0.0000    0.0000
  1.320   16.6560    0.6329   16.6106    0.6302   15.1431    0.5300   14.9945    0.5123   16.1385    0.6016   16.4225    0.6208    0.0000    0.0000
  1.340   16.7402    0.6506   16.6945    0.6479   15.2136    0.5444   15.0628    0.5260   16.2186    0.6183   16.5051    0.6382    0.0000    0.0000
  1.360   16.8268    0.6689   16.7807    0.6661   15.2861    0.5592   15.1329    0.5401   16.3008    0.6356   16.5900    0.6561    0.0000    0.0000
  1.380   16.9157    0.6878   16.8692    0.6849   15.3606    0.5745   15.2048    0.5546   16.3854    0.6535   16.6772    0.6746    0.0000    0.0000
  1.400   17.0071    0.7073   16.9603    0.7042   15.4370    0.5902   15.2786    0.5696   16.4722    0.6718   16.7669    0.6938    0.0000    0.0000
  1.420   17.1011    0.7274   17.0538    0.7243   15.5155    0.6064   15.3544    0.5850   16.5615    0.6908   16.8591    0.7135    0.0000    0.0000
  1.440   17.1977    0.7481   17.1501    0.7449   15.5962    0.6232   15.4323    0.6008   16.6533    0.7104   16.9538    0.7339    0.0000    0.0000
  1.460   17.2971    0.7696   17.2490    0.7663   15.6790    0.6404   15.5122    0.6172   16.7477    0.7307   17.0513    0.7550    0.0000    0.0000
  1.480   17.3992    0.7918   17.3507    0.7884   15.7641    0.6582   15.5943    0.6340   16.8447    0.7517   17.1515    0.7768    0.0000    0.0000
  1.500   17.5043    0.8149   17.4553    0.8113   15.8516    0.6767   15.6786    0.6514   16.9444    0.7734   17.2546    0.7994    0.0000    0.0000
  1.520   17.6124    0.8387   17.5629    0.8351   15.9414    0.6957   15.7651    0.6694   17.0470    0.7959   17.3606    0.8228    0.0000    0.0000
  1.540   17.7236    0.8634   17.6736    0.8596   16.0338    0.7154   15.8540    0.6880   17.1526    0.8191   17.4696    0.8471    0.0000    0.0000
  1.560   17.8380    0.8890   17.7875    0.8852   16.1287    0.7358   15.9454    0.7072   17.2611    0.8433   17.5819    0.8722    0.0000    0.0000
  1.580   17.9557    0.9156   17.9048    0.9116   16.2263    0.7569   16.0393    0.7270   17.3728    0.8683   17.6974    0.8984    0.0000    0.0000
  1.600   18.0769    0.9432   18.0255    0.9391   16.3266    0.7788   16.1358    0.7476   17.4878    0.8944   17.8163    0.9255    0.0000    0.0000
  1.620   18.2017    0.9720   18.1497    0.9677   16.4299    0.8015   16.2349    0.7689   17.6062    0.9214   17.9388    0.9538    0.0000    0.0000
  1.640   18.3303    1.0019   18.2777    0.9975   16.5360    0.8251   16.3369    0.7910   17.7281    0.9495   18.0649    0.9831    0.0000    0.0000
  1.660   18.4627    1.0330   18.4095    1.0284   16.6453    0.8496   16.4417    0.8139   17.8536    0.9788   18.1948    1.0137    0.0000    0.0000
  1.680   18.5991    1.0654   18.5454    1.0607   16.7577    0.8750   16.5495    0.8377   17.9829    1.0093   18.3287    1.0456    0.0000    0.0000
  1.700   18.7398    1.0992   18.6854    1.0943   16.8734    0.9015   16.6604    0.8624   18.1162    1.0411   18.4667    1.0789    0.0000    0.0000
  1.720   18.8847    1.1345   18.8297    1.1295   16.9925    0.9291   16.7746    0.8880   18.2536    1.0743   18.6089    1.1136    0.0000    0.0000
  1.740   19.0343    1.1714   18.9786    1.1661   17.1153    0.9579   16.8920    0.9148   18.3952    1.1090   18.7557    1.1499    0.0000    0.0000
  1.760   19.1886    1.2099   19.1322    1.2045   17.2417    0.9879   17.0129    0.9426   18.5413    1.1452   18.9071    1.1879    0.0000    0.0000
  1.780   19.3478    1.2503   19.2907    1.2447   17.3720    1.0192   17.1374    0.9716   18.6920    1.1831   19.0634    1.2276    0.0000    0.0000
  1.800   19.5122    1.2926   19.4544    1.2868   17.5063    1.0519   17.2657    1.0018   18.8477    1.2228   19.2247    1.2693    0.0000    0.0000
  1.820   19.6820    1.3369   19.6234    1.3309   17.6449    1.0862   17.3979    1.0334   19.0083    1.2644   19.3914    1.3130    0.0000    0.0000
  1.840   19.8574    1.3835   19.7980    1.3772   17.7878    1.1220   17.5341    1.0663   19.1743    1.3081   19.5636    1.3590    0.0000    0.0000
  1.860   20.0387    1.4324   19.9786    1.4260   17.9352    1.1596   17.6745    1.1008   19.3458    1.3540   19.7417    1.4073    0.0000    0.0000
  1.880   20.2263    1.4839   20.1653    1.4772   18.0875    1.1991   17.8194    1.1369   19.5232    1.4024   19.9258    1.4582    0.0000    0.0000
  1.900   20.4203    1.5382   20.3584    1.5313   18.2448    1.2405   17.9689    1.1748   19.7066    1.4532   20.1163    1.5118    0.0000    0.0000
  1.920   20.6212    1.5955   20.5584    1.5882   18.4073    1.2841   18.1232    1.2145   19.8964    1.5069   20.3136    1.5684    0.0000    0.0000
  1.940   20.8292    1.6560   20.7654    1.6485   18.5753    1.3300   18.2826    1.2561   20.0930    1.5636   20.5179    1.6283    0.0000    0.0000
  1.960   21.0447    1.7200   20.9800    1.7122   18.7491    1.3785   18.4472    1.3000   20.2966    1.6235   20.7297    1.6916    0.0000    0.0000
  1.980   21.2682    1.7878   21.2025    1.7796   18.9289    1.4296   18.6174    1.3461   20.5077    1.6870   20.9493    1.7588    0.0000    0.0000
  2.000   21.5001    1.8597   21.4333    1.8513   19.1151    1.4837   18.7934    1.3948   20.7266    1.7544   21.1771    1.8302    0.0000    0.0000
  2.020   21.7408    1.9362   21.6728    1.9274   19.3080    1.5410   18.9755    1.4461   20.9537    1.8259   21.4136    1.9061    0.0000    0.0000
  2.040   21.9908    2.0176   21.9217    2.0084   19.5079    1.6018   19.1640    1.5004   21.1896    1.9021   21.6593    1.9870    0.0000    0.0000
  2.060   22.2506    2.1044   22.1803    2.0948   19.7152    1.6665   19.3592    1.5578   21.4347    1.9833   21.9148    2.0734    0.0000    0.0000
  2.080   22.5209    2.1971   22.4493    2.1872   19.9304    1.7353   19.5615    1.6187   21.6896    2.0700   22.1805    2.1659    0.0000    0.0000
  2.100   22.8021    2.2964   22.7293    2.2860   20.1538    1.8088   19.7713    1.6834   21.9548    2.1628   22.4571    2.2650    0.0001    0.0000
  2.120   23.0951    2.4030   23.0209    2.3921   20.3860    1.8873   19.9890    1.7522   22.2309    2.2623   22.7452    2.3715    0.0001    0.0000
  2.140   23.4005    2.5175   23.3249    2.5062   20.6274    1.9714   20.2151    1.8255   22.5187    2.3693   23.0455    2.4863    0.0003    0.0000
  2.160   23.7190    2.6409   23.6419    2.6291   20.8786    2.0617   20.4499    1.9038   22.8187    2.4846   23.3588    2.6102    0.0006    0.0000
  2.180   24.0516    2.7743   23.9729    2.7619   21.1402    2.1590   20.6940    1.9876   23.1319    2.6091   23.6859    2.7444    0.0011    0.0000
  2.200   24.3990    2.9188   24.3187    2.9059   21.4127    2.2639   20.9480    2.0774   23.4590    2.7439   24.0275    2.8901    0.0022    0.0000
  2.220   24.7621    3.0757   24.6801    3.0622   21.6969    2.3775   21.2125    2.1738   23.8009    2.8903   24.3845    3.0488    0.0040    0.0000
  2.240   25.1420    3.2467   25.0583    3.2326   21.9933    2.5009   21.4881    2.2778   24.1585    3.0497   24.7579    3.2223    0.0073    0.0000
  2.260   25.5398    3.4335   25.4541    3.4188   22.3027    2.6352   21.7754    2.3900   24.5328    3.2238   25.1484    3.4125    0.0126    0.0000
  2.280   25.9563    3.6384   25.8687    3.6230   22.6258    2.7819   22.0753    2.5115   24.9249    3.4148   25.5570    3.6219    0.0212    0.0000
  2.300   26.3927    3.8638   26.3031    3.8478   22.9632    2.9427   22.3884    2.6435   25.3358    3.6247   25.9843    3.8530    0.0345    0.0001
  2.320   26.8500    4.1127   26.7583    4.0960   23.3157    3.1197   22.7156    2.7873   25.7665    3.8566   26.4310    4.1093    0.0544    0.0001
  2.340   27.3292    4.3886   27.2351    4.3712   23.6838    3.3152   23.0578    2.9444   26.2180    4.1135   26.8974    4.3945    0.0834    0.0002
  2.360   27.8308    4.6955   27.7344    4.6774   24.0677    3.5319   23.4158    3.1167   26.6912    4.3993   27.3833    4.7129    0.1241    0.0003
  2.380   28.3554    5.0381   28.2565    5.0193   24.4678    3.7728   23.7906    3.3063   27.1869    4.7187   27.8879    5.0694    0.1799    0.0004
  2.400   28.9028    5.4218   28.8012    5.4025   24.8835    4.0417   24.1830    3.5158   27.7052    5.0771   28.4092    5.4693    0.2542    0.0006
  2.420   29.4723    5.8529   29.3679    5.8332   25.3140    4.3424   24.5939    3.7482   28.2459    5.4808   28.9442    5.9182    0.3509    0.0008
  2.440   30.0620    6.3382   29.9546    6.3183   25.7576    4.6791   25.0240    4.0071   28.8077    5.9373   29.4882    6.4212    0.4747    0.0012
  2.460   30.6691    6.8848   30.5584    6.8651   26.2119    5.0559   25.4736    4.2968   29.3881    6.4551   30.0353    6.9822    0.6309    0.0016
  2.480   31.2894    7.5004   31.1750    7.4815   26.6733    5.4767   25.9430    4.6224   29.9826    7.0438   30.5787    7.6032    0.8261    0.0023
  2.500   31.9177    8.1922   31.7988    8.1749   27.1383    5.9446   26.4316    4.9900   30.5840    7.7136   31.1129    8.2834    1.0688    0.0030
  2.520   32.5483    8.9682   32.4235    8.9535   27.6030    6.4624   26.9379    5.4067   31.1820    8.4746   31.6357    9.0207    1.3693    0.0040
  2.540   33.1746    9.8368   33.0418    9.8257   28.0643    7.0330   27.4589    5.8809   31.7628    9.3355   32.1497    9.8146    1.7403    0.0053
  2.560   33.7889   10.8089   33.6448   10.8020   28.5193    7.6607   27.9897    6.4223   32.3094   10.3026   32.6614   10.6716    2.1955    0.0069
  2.580   34.3797   11.8981   34.2200   11.8952   28.9638    8.3519   28.5221    7.0413   32.8031   11.3782   33.1755   11.6080    2.7490    0.0090
  2.600   34.9299   13.1203   34.7494   13.1196   29.3909    9.1148   29.0440    7.7488   33.2256   12.5617   33.6873   12.6493    3.4127    0.0115
  2.620   35.4132   14.4918   35.2062   14.4897   29.7893    9.9582   29.5376    8.5547   33.5590   13.8520   34.1776   13.8246    4.1936    0.0145
  2.640   35.7919   16.0257   35.5527   16.0164   30.1418   10.8902   29.9785    9.4654   33.7834   15.2505   34.6104   15.1581    5.0914    0.0183
  2.660   36.0148   17.7265   35.7378   17.7015   30.4250   11.9148   30.3354   10.4797   33.8690   16.7595   34.9357   16.6624    6.0959    0.0228
  2.680   36.0173   19.5804   35.6980   19.5273   30.6089   13.0282   30.5727   11.5838   33.7709   18.3732   35.0937   18.3318    7.1861    0.0281
  2.700   35.7292   21.5437   35.3662   21.4457   30.6612   14.2134   30.6567   12.7461   33.4329   20.0626   35.0212   20.1374    8.3312    0.0342
  2.720   35.0920   23.5356   34.6904   23.3714   30.5546   15.4383   30.5672   13.9168   32.8024   21.7646   34.6626   22.0234    9.4920    0.0412
  2.740   34.0824   25.4431   33.6578   25.1905   30.2757   16.6587   30.3101   15.0356   31.8550   23.3838   33.9826   23.9102   10.6254    0.0490
  2.760   32.7321   27.1441   32.3109   26.7857   29.8308   17.8282   29.9233   16.0509   30.6129   24.8122   32.9795   25.7052   11.6879    0.0576
  2.780   31.1266   28.5422   30.7440   28.0707   29.2423   18.9087   29.4668   16.9403   29.1475   25.9584   31.6880   27.3216   12.6404    0.0668
  2.800   29.3808   29.5927   29.0759   29.0145   28.5413   19.8762   28.9978   17.7194   27.5621   26.7714   30.1709   28.6962   13.4512    0.0767
  2.820   27.6040   30.3061   27.4143   29.6433   27.7580   20.7201   28.5468   18.4298   25.9656   27.2487   28.5016   29.7985   14.0979    0.0871
  2.840   25.8736   30.7296   25.8280   30.0191   26.9166   21.4375   28.1094   19.1138   24.4491   27.4281   26.7447   30.6268   14.5681    0.0978
  2.860   24.2279   30.9197   24.3398   30.2096   26.0347   22.0255   27.6576   19.7926   23.0725   27.3705   24.9433   31.1929   14.8594    0.1087
  2.880   22.6762   30.9201   22.9390   30.2612   25.1289   22.4762   27.1622   20.4590   21.8633   27.1401   23.1223   31.5013   14.9781    0.1197
  2.900   21.2175   30.7531   21.6051   30.1891   24.2243   22.7776   26.6099   21.0879   20.8260   26.7905   21.3068   31.5379   14.9384    0.1307
  2.920   19.8577   30.4238   20.3309   29.9841   23.3594   22.9231   26.0082   21.6519   19.9547   26.3611   19.5442   31.2788   14.7619    0.1416
  2.940   18.6171   29.9341   19.1316   29.6306   22.5824   22.9241   25.3793   22.1343   19.2421   25.8795   17.9116   30.7151   14.4759    0.1522
  2.960   17.5282   29.2950   18.0416   29.1235   21.9375   22.8161   24.7494   22.5335   18.6831   25.3675   16.5011   29.8774   14.1128    0.1626
  2.980   16.6249   28.5341   17.1020   28.4772   21.4499   22.6543   24.1395   22.8602   18.2761   24.8455   15.3890   28.8414   13.7073    0.1726
  3.000   15.9322   27.6938   16.3486   27.7255   21.1174   22.4991   23.5602   23.1319   18.0209   24.3367   14.6107   27.7095   13.2944    0.1824
  3.020   15.4589   26.8240   15.8027   26.9146   20.9131   22.4020   23.0105   23.3650   17.9145   23.8711   14.1559   26.5833   12.9055    0.1919
  3.040   15.1970   25.9734   15.4678   26.0953   20.7929   22.3968   22.4807   23.5679   17.9435   23.4836   13.9809   25.5425   12.5661    0.2011
  3.060   15.1247   25.1816   15.3309   25.3134   20.7052   22.4947   21.9601   23.7361   18.0781   23.2067   14.0261   24.6384   12.2925    0.2102
  3.080   15.2141   24.4762   15.3674   24.6041   20.6007   22.6829   21.4473   23.8542   18.2742   23.0587   14.2289   23.8954   12.0915    0.2191
  3.100   15.4370   23.8737   15.5494   23.9903   20.4440   22.9280   20.9563   23.9045   18.4833   23.0351   14.5330   23.3170   11.9595    0.2278
  3.120   15.7689   23.3836   15.8503   23.4859   20.2229   23.1855   20.5172   23.8798   18.6677   23.1094   14.8925   22.8922   11.8851    0.2366
  3.140   16.1878   23.0132   16.2462   23.1002   19.9496   23.4155   20.1655   23.7927   18.8107   23.2440   15.2729   22.6020   11.8507    0.2453
  3.160   16.6709   22.7682   16.7126   22.8397   19.6517   23.5948   19.9278   23.6778   18.9167   23.4050   15.6486   22.4228   11.8364    0.2540
  3.180   17.1925   22.6488   17.2236   22.7050   19.3568   23.7174   19.8076   23.5810   19.0014   23.5706   16.0027   22.3254   11.8234    0.2627
  3.200   17.7277   22.6454   17.7546   22.6877   19.0856   23.7860   19.7829   23.5415   19.0823   23.7285   16.3313   22.2755   11.7972    0.2714
  3.220   18.2597   22.7377   18.2886   22.7698   18.8553   23.8022   19.8174   23.5762   19.1786   23.8705   16.6488   22.2398   11.7502    0.2800
  3.240   18.7873   22.9012   18.8233   22.9299   18.6880   23.7679   19.8797   23.6782   19.3159   23.9919   16.9875   22.1976   11.6839    0.2886
  3.260   19.3262   23.1179   19.3707   23.1525   18.6130   23.6944   19.9574   23.8277   19.5288   24.1002   17.3883   22.1502   11.6093    0.2971
  3.280   19.9028   23.3865   19.9525   23.4368   18.6592   23.6095   20.0582   24.0095   19.8525   24.2238   17.8866   22.1209   11.5459    0.3056
  3.300   20.5423   23.7269   20.5887   23.8004   18.8432   23.5568   20.1991   24.2255   20.3091   24.4129   18.5039   22.1486   11.5195    0.3141
  3.320   21.2563   24.1760   21.2878   24.2758   19.1616   23.5872   20.3922   24.4945   20.8947   24.7292   19.2446   22.2791   11.5589    0.3226
  3.340   22.0351   24.7777   22.0393   24.9014   19.5893   23.7467   20.6339   24.8443   21.5765   25.2303   20.0956   22.5583   11.6922    0.3312
  3.360   22.8474   25.5705   22.8136   25.7102   20.0855   24.0669   20.9039   25.2985   22.2996   25.9553   21.0275   23.0259   11.9439    0.3399
  3.380   23.6469   26.5765   23.5685   26.7206   20.6041   24.5597   21.1721   25.8681   23.0002   26.9176   22.0000   23.7089   12.3323    0.3490
  3.400   24.3832   27.7975   24.2590   27.9327   21.1040   25.2197   21.4076   26.5484   23.6192   28.1061   22.9685   24.6191   12.8702    0.3585
  3.420   25.0133   29.2161   24.8478   29.3304   21.5559   26.0318   21.5876   27.3219   24.1122   29.4931   23.8930   25.7548   13.5658    0.3684
  3.440   25.5119   30.8046   25.3136   30.8905   21.9423   26.9795   21.7034   28.1651   24.4543   31.0458   24.7428   27.1077   14.4255    0.3790
  3.460   25.8735   32.5402   25.6513   32.5960   22.2539   28.0513   21.7627   29.0576   24.6372   32.7388   25.4965   28.6720   15.4562    0.3904
  3.480   26.1023   34.4199   25.8619   34.4486   22.4842   29.2431   21.7850   29.9943   24.6580   34.5635   26.1345   30.4506   16.6673    0.4026
  3.500   26.1919   36.4636   25.9331   36.4701   22.6233   30.5587   21.7881   30.9911   24.5038   36.5275   26.6286   32.4556   18.0700    0.4159
  3.520   26.1072   38.7003   25.8235   38.6870   22.6522   32.0066   21.7732   32.0800   24.1388   38.6425   26.9331   34.6995   19.6752    0.4304
  3.540   25.7818   41.1445   25.4624   41.1071   22.5379   33.5924   21.7177   33.2935   23.5027   40.9056   26.9834   37.1824   21.4890    0.4462
  3.560   25.1329   43.7776   24.7665   43.7017   22.2357   35.3086   21.5809   34.6506   22.5221   43.2828   26.7039   39.8796   23.5079    0.4635
  3.580   24.0821   46.5442   23.6641   46.4046   21.6985   37.1267   21.3170   36.1520   21.1305   45.7022   26.0220   42.7357   25.7133    0.4824
  3.600   22.5712   49.3615   22.1112   49.1259   20.8902   38.9985   20.8831   37.7851   19.2889   48.0609   24.8838   45.6698   28.0684    0.5030
  3.620   20.5679   52.1309   20.0947   51.7693   19.7948   40.8656   20.2390   39.5297   16.9989   50.2414   23.2635   48.5870   30.5156    0.5254
  3.640   18.0673   54.7464   17.6265   54.2434   18.4158   42.6733   19.3441   41.3569   14.3046   52.1332   21.1633   51.3943   32.9781    0.5496
  3.660   15.0929   57.1033   14.7363   56.4667   16.7657   44.3778   18.1598   43.2237   11.2831   53.6516   18.6035   54.0113   35.3628    0.5756
  3.680   11.6942   59.1084   11.4657   58.3698   14.8554   45.9420   16.6570   45.0725    8.0253   54.7464   15.6092   56.3683   37.5665    0.6033
  3.700    7.9369   60.6885    7.8613   59.8950   12.6931   47.3240   14.8221   46.8361    4.6175   55.3980   12.2055   58.3955   39.4841    0.6323
  3.720    3.8903   61.7888    3.9681   60.9899   10.2948   48.4705   12.6574   48.4425    1.1306   55.6031    8.4261   60.0149   41.0171    0.6624
  3.740   -0.3798   62.3622   -0.1679   61.5964    7.6968   49.3231   10.1823   49.8172   -2.3771   55.3591    4.3242   61.1412   42.0835    0.6933
  3.760   -4.8042   62.3565   -4.4858   61.6431    4.9594   49.8308    7.4361   50.8861   -5.8481   54.6551   -0.0192   61.6918   42.6262    0.7247
  3.780   -9.2929   61.7122   -8.8897   61.0531    2.1637   49.9628    4.4829   51.5826   -9.2082   53.4744   -4.4924   61.5979   42.6191    0.7560
  3.800  -13.7155   60.3794  -13.2347   59.7697   -0.5988   49.7194    1.4109   51.8607  -12.3531   51.8135   -8.9539   60.8200   42.0697    0.7869
  3.820  -17.9025   58.3534  -17.3376   57.7947   -3.2431   49.1372   -1.6787   51.7097  -15.1548   49.7119  -13.2439   59.3678   41.0189    0.8171
  3.840  -21.6777   55.7017  -21.0190   55.2114   -5.7116   48.2821   -4.6948   51.1581  -17.4937   47.2727  -17.2147   57.3093   39.5358    0.8461
  3.860  -24.9051   52.5588  -24.1525   52.1689   -7.9871   47.2262   -7.5780   50.2568  -19.3026   44.6519  -20.7609   54.7539   37.7102    0.8738
  3.880  -27.5158   49.0885  -26.6890   48.8368  -10.0839   46.0214  -10.3005   49.0505  -20.5906   42.0181  -23.8284   51.8184   35.6433    0.9000
  3.900  -29.5001   45.4447  -28.6408   45.3605  -12.0227   44.6882  -12.8436   47.5611  -21.4340   39.5075  -26.3952   48.6017   33.4381    0.9246
  3.920  -30.8832   41.7548  -30.0469   41.8461  -13.8069   43.2272  -15.1708   45.7981  -21.9426   37.2000  -28.4457   45.1851   31.1903    0.9475
  3.940  -31.7055   38.1243  -30.9473   38.3723  -15.4177   41.6437  -17.2235   43.7874  -22.2256   35.1209  -29.9605   41.6518   28.9825    0.9688
  3.960  -32.0199   34.6448  -31.3797   35.0092  -16.8303   39.9654  -18.9434   41.5909  -22.3726   33.2595  -30.9294   38.1016   26.8791    0.9886
  3.980  -31.8951   31.3941  -31.3896   31.8253  -18.0379   38.2386  -20.3033   39.3015  -22.4498   31.5861  -31.3717   34.6469   24.9254    1.0069
  4.000  -31.4135   28.4279  -31.0381   28.8804  -19.0624   36.5072  -21.3236   37.0130  -22.5043   30.0614  -31.3451   31.3922   23.1478    1.0239
  4.020  -30.6627   25.7756  -30.3991   26.2160  -19.9448   34.7899  -22.0604   34.7896  -22.5660   28.6384  -30.9370   28.4130   21.5564    1.0398
  4.040  -29.7241   23.4419  -29.5491   23.8503  -20.7205   33.0726  -22.5775   32.6537  -22.6433   27.2659  -30.2454   25.7473   20.1487    1.0546
  4.060  -28.6668   21.4148  -28.5587   21.7817  -21.3972   31.3217  -22.9191   30.5955  -22.7204   25.8969  -29.3607   23.4000   18.9142    1.0685
  4.080  -27.5466   19.6723  -27.4873   19.9944  -21.9474   29.5093  -23.0992   28.5974  -22.7601   24.5020  -28.3564   21.3545   17.8383    1.0816
  4.100  -26.4078   18.1873  -26.3826   18.4649  -22.3226   27.6371  -23.1098   26.6556  -22.7163   23.0794  -27.2872   19.5836   16.9063    1.0940
  4.120  -25.2850   16.9302  -25.2816   17.1653  -22.4783   25.7423  -22.9395   24.7888  -22.5513   21.6547  -26.1930   18.0576   16.1052    1.1059
  4.140  -24.2044   15.8698  -24.2126   16.0661  -22.3958   23.8864  -22.5911   23.0309  -22.2494   20.2700  -25.1026   16.7478   15.4245    1.1172
  4.160  -23.1848   14.9736  -23.1963   15.1364  -22.0891   22.1337  -22.0864   21.4170  -21.8202   18.9681  -24.0379   15.6264   14.8559    1.1281
  4.180  -22.2365   14.2089  -22.2455   14.3447  -21.5981   20.5334  -21.4620   19.9704  -21.2916   17.7787  -23.0152   14.6664   14.3925    1.1387
  4.200  -21.3615   13.5446  -21.3652   13.6599  -20.9733   19.1116  -20.7581   18.6984  -20.6977   16.7134  -22.0442   13.8403   14.0276    1.1490
  4.220  -20.5537   12.9540  -20.5516   13.0543  -20.2634   17.8739  -20.0101   17.5957  -20.0688   15.7692  -21.1277   13.1227   13.7549    1.1591
  4.240  -19.8007   12.4178  -19.7935   12.5065  -19.5086   16.8136  -19.2452   16.6504  -19.4263   14.9351  -20.2617   12.4924   13.5694    1.1691
  4.260  -19.0886   11.9251  -19.0767   12.0041  -18.7408   15.9176  -18.4840   15.8496  -18.7836   14.1983  -19.4389   11.9354   13.4684    1.1790
  4.280  -18.4052   11.4729  -18.3882   11.5434  -17.9858   15.1697  -17.7438   15.1806  -18.1485   13.5474  -18.6522   11.4441   13.4528    1.1889
  4.300  -17.7426   11.0621  -17.7193   11.1259  -17.2640   14.5501  -17.0404   14.6294  -17.5261   12.9719  -17.8973   11.0147   13.5274    1.1988
  4.320  -17.0968   10.6960  -17.0662   10.7557  -16.5890   14.0366  -16.3870   14.1795  -16.9185   12.4630  -17.1723   10.6451   13.7005    1.2089
  4.340  -16.4673   10.3778  -16.4292   10.4366  -15.9664   13.6070  -15.7923   13.8123  -16.3250   12.0134  -16.4770   10.3339   13.9814    1.2192
  4.360  -15.8560   10.1109  -15.8116   10.1723  -15.3952   13.2430  -15.2600   13.5094  -15.7432   11.6201  -15.8131   10.0810   14.3773    1.2297
  4.380  -15.2677    9.8977  -15.2194    9.9643  -14.8714   12.9322  -14.7893   13.2548  -15.1717   11.2845  -15.1853    9.8856   14.8910    1.2407
  4.400  -14.7095    9.7388  -14.6605    9.8123  -14.3919   12.6670  -14.3775   13.0353  -14.6133   11.0107  -14.6011    9.7448   15.5173    1.2521
  4.420  -14.1901    9.6322  -14.1441    9.7123  -13.9560   12.4413  -14.0212   12.8407  -14.0760   10.8025  -14.0683    9.6506   16.2429    1.2640
  4.440  -13.7188    9.5720  -13.6784    9.6572  -13.5639   12.2485  -13.7174   12.6615  -13.5713   10.6603  -13.5917    9.5910   17.0469    1.2765
  4.460  -13.3032    9.5480  -13.2699    9.6362  -13.2151   12.0813  -13.4626   12.4881  -13.1125   10.5799  -13.1699    9.5522   17.9020    1.2897
  4.480  -12.9470    9.5476  -12.9210    9.6368  -12.9072   11.9330  -13.2508   12.3109  -12.7125   10.5519  -12.7956    9.5242   18.7785    1.3035
  4.500  -12.6489    9.5575  -12.6297    9.6468  -12.6377   11.7990  -13.0733   12.1228  -12.3810   10.5622  -12.4596    9.5030   19.6466    1.3179
  4.520  -12.4034    9.5673  -12.3911    9.6564  -12.4051   11.6761  -12.9201   11.9207  -12.1233   10.5936  -12.1559    9.4908   20.4791    1.3330
  4.540  -12.2037    9.5705  -12.1993    9.6592  -12.2102   11.5611  -12.7838   11.7058  -11.9391   10.6286  -11.8841    9.4911   21.2527    1.3486
  4.560  -12.0442    9.5637  -12.0493    9.6512  -12.0551   11.4481  -12.6611   11.4800  -11.8238   10.6515  -11.6483    9.5046   21.9488    1.3648
  4.580  -11.9216    9.5447  -11.9381    9.6286  -11.9406   11.3279  -12.5512   11.2426  -11.7708   10.6486  -11.4537    9.5282   22.5527    1.3813
  4.600  -11.8344    9.5102  -11.8636    9.5864  -11.8638   11.1892  -12.4523   10.9897  -11.7719   10.6070  -11.3044    9.5555   23.0530    1.3983
  4.620  -11.7818    9.4544  -11.8225    9.5171  -11.8169   11.0208  -12.3590   10.7160  -11.8160   10.5131  -11.2031    9.5783   23.4408    1.4155
  4.640  -11.7603    9.3684  -11.8081    9.4121  -11.7878   10.8146  -12.2625   10.4187  -11.8862   10.3548  -11.1509    9.5859   23.7093    1.4329
  4.660  -11.7618    9.2430  -11.8088    9.2644  -11.7617   10.5669  -12.1521   10.0989  -11.9591   10.1256  -11.1455    9.5651   23.8532    1.4505
  4.680  -11.7726    9.0716  -11.8097    9.0720  -11.7231   10.2794  -12.0182    9.7625  -12.0084    9.8292  -11.1788    9.5016   23.8690    1.4680
  4.700  -11.7768    8.8546  -11.7963    8.8398  -11.6582    9.9593  -11.8549    9.4188  -12.0114    9.4809  -11.2357    9.3843   23.7552    1.4855
  4.720  -11.7605    8.5987  -11.7584    8.5776  -11.5569    9.6181  -11.6613    9.0781  -11.9555    9.1034  -11.2968    9.2089   23.5127    1.5027
  4.740  -11.7148    8.3144  -11.6919    8.2960  -11.4148    9.2693  -11.4409    8.7479  -11.8391    8.7198  -11.3431    8.9797   23.1458    1.5198
  4.760  -11.6356    8.0122  -11.5965    8.0038  -11.2331    8.9256  -11.1981    8.4314  -11.6696    8.3486  -11.3601    8.7073   22.6641    1.5364
  4.780  -11.5217    7.7012  -11.4730    7.7064  -11.0165    8.5964  -10.9355    8.1290  -11.4584    8.0009  -11.3398    8.4046   22.0850    1.5526
  4.800  -11.3735    7.3891  -11.3217    7.4079  -10.7713    8.2867  -10.6525    7.8404  -11.2168    7.6810  -11.2789    8.0839   21.4360    1.5684
  4.820  -11.1920    7.0824  -11.1416    7.1125  -10.5020    7.9981  -10.3461    7.5673  -10.9530    7.3883  -11.1773    7.7553   20.7576    1.5837
  4.840  -10.9787    6.7873  -10.9320    6.8254  -10.2102    7.7311  -10.0129    7.3151  -10.6709    7.1209  -11.0357    7.4271   20.1032    1.5984
  4.860  -10.7358    6.5095  -10.6929    6.5529   -9.8948    7.4875   -9.6516    7.0919  -10.3707    6.8781  -10.8554    7.1066   19.5383    1.6128
  4.880  -10.4660    6.2547  -10.4262    6.3020   -9.5543    7.2729   -9.2647    6.9079  -10.0514    6.6625  -10.6381    6.8011   19.1354    1.6269
  4.900  -10.1733    6.0283  -10.1355    6.0797   -9.1894    7.0958   -8.8584    6.7725   -9.7134    6.4801  -10.3866    6.5185   18.9670    1.6408
  4.920   -9.8630    5.8356   -9.8276    5.8923   -8.8051    6.9660   -8.4429    6.6937   -9.3609    6.3379  -10.1059    6.2663   19.0957    1.6548
  4.940   -9.5423    5.6808   -9.5111    5.7438   -8.4110    6.8920   -8.0311    6.6758   -9.0017    6.2421   -9.8035    6.0510   19.5648    1.6692
  4.960   -9.2200    5.5656   -9.1961    5.6349   -8.0200    6.8787   -7.6372    6.7195   -8.6461    6.1956   -9.4889    5.8763   20.3895    1.6842
  4.980   -8.9051    5.4889   -8.8920    5.5625   -7.6465    6.9268   -7.2759    6.8207   -8.3049    6.1973   -9.1720    5.7427   21.5518    1.7000
  5.000   -8.6059    5.4468   -8.6066    5.5205   -7.3044    7.0324   -6.9607    6.9710   -7.9876    6.2431   -8.8618    5.6476   22.9994    1.7169
  5.020   -8.3288    5.4328   -8.3441    5.5006   -7.0063    7.1879   -6.7016    7.1570   -7.7013    6.3270   -8.5659    5.5863   24.6493    1.7351
  5.040   -8.0775    5.4393   -8.1052    5.4941   -6.7616    7.3831   -6.5034    7.3629   -7.4511    6.4428   -8.2898    5.5522   26.3959    1.7545
  5.060   -7.8529    5.4578   -7.8869    5.4937   -6.5772    7.6064   -6.3645    7.5733   -7.2409    6.5850   -8.0364    5.5377   28.1228    1.7751
  5.080   -7.6525    5.4805   -7.6839    5.4950   -6.4576    7.8453   -6.2784    7.7765   -7.0754    6.7481   -7.8061    5.5352   29.7145    1.7970
  5.100   -7.4714    5.5021   -7.4904    5.4970   -6.4057    8.0870   -6.2376    7.9659   -6.9601    6.9249   -7.5967    5.5373   31.0691    1.8198
  5.120   -7.3034    5.5204   -7.3024    5.5019   -6.4226    8.3164   -6.2372    8.1383   -6.9002    7.1051   -7.4033    5.5383   32.1081    1.8434
  5.140   -7.1431    5.5364   -7.1178    5.5130   -6.5058    8.5163   -6.2751    8.2900   -6.8976    7.2742   -7.2191    5.5352   32.7821    1.8675
  5.160   -6.9877    5.5530   -6.9374    5.5337   -6.6460    8.6680   -6.3496    8.4139   -6.9485    7.4162   -7.0367    5.5284   33.0733    1.8918
  5.180   -6.8364    5.5734   -6.7635    5.5662   -6.8258    8.7559   -6.4554    8.5003   -7.0421    7.5166   -6.8495    5.5215   32.9942    1.9161
  5.200   -6.6905    5.5998   -6.5997    5.6108   -7.0212    8.7725   -6.5816    8.5407   -7.1621    7.5667   -6.6535    5.5214   32.5826    1.9400
  5.220   -6.5522    5.6329   -6.4490    5.6659   -7.2076    8.7219   -6.7137    8.5313   -7.2913    7.5657   -6.4481    5.5363   31.8958    1.9634
  5.240   -6.4234    5.6716   -6.3133    5.7285   -7.3665    8.6172   -6.8373    8.4736   -7.4155    7.5194   -6.2367    5.5744   31.0043    1.9862
  5.260   -6.3050    5.7140   -6.1926    5.7950   -7.4880    8.4753   -6.9388    8.3731   -7.5265    7.4366   -6.0264    5.6417   29.9860    2.0083
  5.280   -6.1961    5.7579   -6.0850    5.8630   -7.5701    8.3117   -7.0067    8.2379   -7.6208    7.3252   -5.8262    5.7410   28.9217    2.0295
  5.300   -6.0950    5.8023   -5.9881    5.9315   -7.6142    8.1378   -7.0305    8.0798   -7.6977    7.1903   -5.6453    5.8712   27.8912    2.0500
  5.320   -6.0000    5.8474   -5.8995    6.0013   -7.6227    7.9620   -7.0029    7.9147   -7.7559    7.0343   -5.4920    6.0286   26.9702    2.0699
  5.340   -5.9098    5.8944   -5.8187    6.0747   -7.5973    7.7921   -6.9219    7.7621   -7.7918    6.8586   -5.3734    6.2077   26.2266    2.0891
  5.360   -5.8238    5.9444   -5.7466    6.1538   -7.5408    7.6367   -6.7935    7.6426   -7.7998    6.6667   -5.2947    6.4007   25.7163    2.1080
  5.380   -5.7420    5.9993   -5.6857    6.2397   -7.4586    7.5047   -6.6318    7.5741   -7.7743    6.4657   -5.2595    6.5982   25.4789    2.1268
  5.400   -5.6651    6.0615   -5.6388    6.3322   -7.3601    7.4032   -6.4575    7.5676   -7.7128    6.2661   -5.2677    6.7898   25.5332    2.1455
  5.420   -5.5954    6.1333   -5.6088    6.4305   -7.2564    7.3356   -6.2938    7.6258   -7.6174    6.0796   -5.3156    6.9653   25.8744    2.1645
  5.440   -5.5371    6.2161   -5.5987    6.5328   -7.1598    7.3006   -6.1632    7.7425   -7.4959    5.9155   -5.3965    7.1175   26.4742    2.1840
  5.460   -5.4957    6.3088   -5.6119    6.6362   -7.0804    7.2927   -6.0836    7.9042   -7.3591    5.7786   -5.5024    7.2420   27.2828    2.2041
  5.480   -5.4759    6.4079   -5.6516    6.7362   -7.0248    7.3027   -6.0670    8.0932   -7.2175    5.6675   -5.6259    7.3375   28.2349    2.2248
  5.500   -5.4807    6.5075   -5.7202    6.8257   -6.9949    7.3210   -6.1191    8.2901   -7.0783    5.5759   -5.7603    7.4046   29.2573    2.2463
  5.520   -5.5107    6.6011   -5.8173    6.8956   -6.9887    7.3396   -6.2399    8.4754   -6.9428    5.4966   -5.9008    7.4453   30.2769    2.2686
  5.540   -5.5645    6.6826   -5.9383    6.9359   -7.0020    7.3540   -6.4246    8.6306   -6.8073    5.4245   -6.0438    7.4623   31.2285    2.2915
  5.560   -5.6392    6.7462   -6.0742    6.9383   -7.0319    7.3625   -6.6638    8.7386   -6.6666    5.3596   -6.1880    7.4580   32.0601    2.3151
  5.580   -5.7304    6.7865   -6.2117    6.8982   -7.0777    7.3641   -6.9430    8.7851   -6.5169    5.3063   -6.3330    7.4331   32.7361    2.3391
  5.600   -5.8315    6.7989   -6.3363    6.8171   -7.1395    7.3561   -7.2431    8.7599   -6.3585    5.2711   -6.4779    7.3870   33.2379    2.3636
  5.620   -5.9333    6.7813   -6.4352    6.7028   -7.2164    7.3341   -7.5411    8.6604   -6.1957    5.2599   -6.6205    7.3182   33.5636    2.3882
  5.640   -6.0262    6.7353   -6.5001    6.5673   -7.3052    7.2938   -7.8151    8.4930   -6.0357    5.2758   -6.7569    7.2258   33.7256    2.4130
  5.660   -6.1015    6.6669   -6.5292    6.4235   -7.4009    7.2323   -8.0482    8.2716   -5.8866    5.3182   -6.8825    7.1102   33.7496    2.4378
  5.680   -6.1545    6.5845   -6.5246    6.2826   -7.4986    7.1483   -8.2311    8.0135   -5.7555    5.3833   -6.9923    6.9731   33.6724    2.4626
  5.700   -6.1836    6.4968   -6.4909    6.1526   -7.5935    7.0412   -8.3616    7.7349   -5.6469    5.4642   -7.0813    6.8177   33.5403    2.4872
  5.720   -6.1901    6.4114   -6.4331    6.0395   -7.6801    6.9103   -8.4413    7.4491   -5.5614    5.5534   -7.1450    6.6493   33.4058    2.5118
  5.740   -6.1762    6.3349   -6.3564    5.9485   -7.7505    6.7563   -8.4730    7.1668   -5.4957    5.6444   -7.1806    6.4749   33.3239    2.5363
  5.760   -6.1453    6.2735   -6.2668    5.8841   -7.7957    6.5842   -8.4601    6.8988   -5.4436    5.7349   -7.1879    6.3028   33.3455    2.5608
  5.780   -6.1027    6.2336   -6.1722    5.8500   -7.8085    6.4038   -8.4089    6.6560   -5.3992    5.8273   -7.1701    6.1408   33.5113    2.5854
  5.800   -6.0566    6.2201   -6.0820    5.8472   -7.7871    6.2288   -8.3302    6.4481   -5.3602    5.9283   -7.1326    5.9945   33.8432    2.6103
  5.820   -6.0172    6.2349   -6.0056    5.8736   -7.7366    6.0729   -8.2382    6.2801   -5.3299    6.0458   -7.0818    5.8672   34.3392    2.6355
  5.840   -5.9953    6.2757   -5.9509    5.9237   -7.6679    5.9460   -8.1485    6.1504   -5.3167    6.1853   -7.0239    5.7601   34.9692    2.6612
  5.860   -6.0004    6.3366   -5.9231    5.9905   -7.5950    5.8518   -8.0735    6.0512   -5.3326    6.3479   -6.9645    5.6731   35.6756    2.6875
  5.880   -6.0395    6.4095   -5.9244    6.0676   -7.5316    5.7877   -8.0201    5.9714   -5.3907    6.5293   -6.9092    5.6057   36.3783    2.7142
  5.900   -6.1178    6.4844   -5.9566    6.1499   -7.4881    5.7461   -7.9897    5.8997   -5.5036    6.7192   -6.8644    5.5559   36.9832    2.7414
  5.920   -6.2382    6.5493   -6.0229    6.2326   -7.4707    5.7169   -7.9795    5.8274   -5.6808    6.9011   -6.8370    5.5192   37.3946    2.7689
  5.940   -6.4001    6.5900   -6.1277    6.3081   -7.4818    5.6891   -7.9851    5.7493   -5.9254    7.0530   -6.8321    5.4872   37.5282    2.7953
  5.960   -6.5970    6.5914   -6.2738    6.3642   -7.5197    5.6523   -8.0027    5.6624   -6.2309    7.1509   -6.8510    5.4486   37.3234    2.8273
  5.980   -6.8158    6.5408   -6.4582    6.3851   -7.5801    5.5971   -8.0294    5.5650   -6.5802    7.1736   -6.8890    5.3917   36.7528    2.8374
